Date:	31/01/2022		
Time:	15:57		
Sample name:	JC36_74_3		
Position:	695.895018	mm	
Sample surface:	7.174008	cm	
Tube anode:	Mo		
Tube voltage:	30	kV	
Tube current:	30	mA	
Comments	not in position		
Gain	2.150000		
peaking_time	0.300000	m-sec	
trigger_threshold	40.000000	V	
mca_bin_width	2.000000	no:	
number_mca_channels	2048.000000	no:	
gap_time	0.100000	m-sec	
trigger_peaking_time	0.050000	m-sec	
livetime	12.436560	seconds	
runtime	15.000007	seconds	
input_count_rate	79590.898812	cps	
output_count_rate	65989.102538	cps	
triggers	1153732.000000	seconds	
events_in_run	945938.000000	seconds	
channel	content		
 1.00	 0.00
 2.00	 0.00
 3.00	 0.00
 4.00	 0.00
 5.00	 0.00
 6.00	 0.00
 7.00	 0.00
 8.00	 0.00
 9.00	 0.00
10.00	 0.00
11.00	 0.00
12.00	 0.00
13.00	 0.00
14.00	 0.00
15.00	 0.00
16.00	 0.00
17.00	 0.00
18.00	 0.00
19.00	 0.00
20.00	 0.00
21.00	 0.00
22.00	 0.00
23.00	 0.00
24.00	 0.00
25.00	 0.00
26.00	 0.00
27.00	 0.00
28.00	 0.00
29.00	 0.00
30.00	 0.00
31.00	327.00
32.00	328.00
33.00	311.00
34.00	329.00
35.00	334.00
36.00	301.00
37.00	307.00
38.00	347.00
39.00	338.00
40.00	355.00
41.00	295.00
42.00	335.00
43.00	338.00
44.00	317.00
45.00	373.00
46.00	423.00
47.00	446.00
48.00	548.00
49.00	651.00
50.00	860.00
51.00	1235.00
52.00	1838.00
53.00	2305.00
54.00	2887.00
55.00	3999.00
56.00	5340.00
57.00	7295.00
58.00	10337.00
59.00	14270.00
60.00	18576.00
61.00	21428.00
62.00	23766.00
63.00	24635.00
64.00	24312.00
65.00	23691.00
66.00	22938.00
67.00	22262.00
68.00	21207.00
69.00	21227.00
70.00	20623.00
71.00	20514.00
72.00	20488.00
73.00	20291.00
74.00	20197.00
75.00	20019.00
76.00	19941.00
77.00	20026.00
78.00	19880.00
79.00	19721.00
80.00	20034.00
81.00	19879.00
82.00	19830.00
83.00	20077.00
84.00	20772.00
85.00	20944.00
86.00	20967.00
87.00	20528.00
88.00	20202.00
89.00	19744.00
90.00	19228.00
91.00	18557.00
92.00	18228.00
93.00	17950.00
94.00	17444.00
95.00	17119.00
96.00	17149.00
97.00	16893.00
98.00	16799.00
99.00	16477.00
100.00	16288.00
101.00	16266.00
102.00	16089.00
103.00	15731.00
104.00	15882.00
105.00	15458.00
106.00	15419.00
107.00	15050.00
108.00	15124.00
109.00	14821.00
110.00	14544.00
111.00	14395.00
112.00	14296.00
113.00	13917.00
114.00	13715.00
115.00	13736.00
116.00	13527.00
117.00	13691.00
118.00	13527.00
119.00	13524.00
120.00	13245.00
121.00	13056.00
122.00	12709.00
123.00	12710.00
124.00	12405.00
125.00	12211.00
126.00	12056.00
127.00	11756.00
128.00	11658.00
129.00	11577.00
130.00	11415.00
131.00	11387.00
132.00	11266.00
133.00	11427.00
134.00	11040.00
135.00	10966.00
136.00	10706.00
137.00	10929.00
138.00	11271.00
139.00	11624.00
140.00	11974.00
141.00	12538.00
142.00	13125.00
143.00	14355.00
144.00	14849.00
145.00	15436.00
146.00	15355.00
147.00	15092.00
148.00	14788.00
149.00	13860.00
150.00	13526.00
151.00	13147.00
152.00	13023.00
153.00	12672.00
154.00	12343.00
155.00	12279.00
156.00	11622.00
157.00	10977.00
158.00	10619.00
159.00	10212.00
160.00	10174.00
161.00	10565.00
162.00	11804.00
163.00	14303.00
164.00	18131.00
165.00	23744.00
166.00	30839.00
167.00	39204.00
168.00	47359.00
169.00	54465.00
170.00	58557.00
171.00	59526.00
172.00	56212.00
173.00	50464.00
174.00	42582.00
175.00	35004.00
176.00	27732.00
177.00	22439.00
178.00	18452.00
179.00	16733.00
180.00	15695.00
181.00	15289.00
182.00	15681.00
183.00	17324.00
184.00	19787.00
185.00	23774.00
186.00	28887.00
187.00	34787.00
188.00	41237.00
189.00	46336.00
190.00	50222.00
191.00	50826.00
192.00	49367.00
193.00	44960.00
194.00	39592.00
195.00	32056.00
196.00	25812.00
197.00	19985.00
198.00	15897.00
199.00	12582.00
200.00	10330.00
201.00	9237.00
202.00	8472.00
203.00	7919.00
204.00	7639.00
205.00	7775.00
206.00	7561.00
207.00	7545.00
208.00	7486.00
209.00	7513.00
210.00	7492.00
211.00	7491.00
212.00	7732.00
213.00	8052.00
214.00	8048.00
215.00	8498.00
216.00	9187.00
217.00	9794.00
218.00	10919.00
219.00	12082.00
220.00	13225.00
221.00	14658.00
222.00	15883.00
223.00	16426.00
224.00	17099.00
225.00	17143.00
226.00	16513.00
227.00	15674.00
228.00	14369.00
229.00	12883.00
230.00	11599.00
231.00	9992.00
232.00	8862.00
233.00	8018.00
234.00	7483.00
235.00	6958.00
236.00	6708.00
237.00	6660.00
238.00	6493.00
239.00	6610.00
240.00	6634.00
241.00	6772.00
242.00	7041.00
243.00	7362.00
244.00	8032.00
245.00	9021.00
246.00	11389.00
247.00	14833.00
248.00	19918.00
249.00	28431.00
250.00	39364.00
251.00	54173.00
252.00	71998.00
253.00	91489.00
254.00	110038.00
255.00	127034.00
256.00	138920.00
257.00	142014.00
258.00	137648.00
259.00	127246.00
260.00	110473.00
261.00	91003.00
262.00	71596.00
263.00	53313.00
264.00	38527.00
265.00	27778.00
266.00	20401.00
267.00	15599.00
268.00	13691.00
269.00	13123.00
270.00	13716.00
271.00	15076.00
272.00	16493.00
273.00	18484.00
274.00	19896.00
275.00	20443.00
276.00	20752.00
277.00	20615.00
278.00	19832.00
279.00	18467.00
280.00	17657.00
281.00	17215.00
282.00	17579.00
283.00	18895.00
284.00	21453.00
285.00	24695.00
286.00	28090.00
287.00	31983.00
288.00	35153.00
289.00	37405.00
290.00	37915.00
291.00	36364.00
292.00	33652.00
293.00	29794.00
294.00	25417.00
295.00	20903.00
296.00	17116.00
297.00	13701.00
298.00	11146.00
299.00	9348.00
300.00	8228.00
301.00	7391.00
302.00	7165.00
303.00	7245.00
304.00	7414.00
305.00	7571.00
306.00	8123.00
307.00	8817.00
308.00	9693.00
309.00	10592.00
310.00	11919.00
311.00	13492.00
312.00	15641.00
313.00	19338.00
314.00	24610.00
315.00	32893.00
316.00	44208.00
317.00	59761.00
318.00	80353.00
319.00	104292.00
320.00	131300.00
321.00	157759.00
322.00	183264.00
323.00	202003.00
324.00	212135.00
325.00	212697.00
326.00	202106.00
327.00	183512.00
328.00	157308.00
329.00	130591.00
330.00	103139.00
331.00	77899.00
332.00	56596.00
333.00	40399.00
334.00	28374.00
335.00	20297.00
336.00	15282.00
337.00	12588.00
338.00	11657.00
339.00	11866.00
340.00	12891.00
341.00	14963.00
342.00	18419.00
343.00	22828.00
344.00	29836.00
345.00	39841.00
346.00	54816.00
347.00	77583.00
348.00	113627.00
349.00	168007.00
350.00	252269.00
351.00	376326.00
352.00	557433.00
353.00	806418.00
354.00	1129044.00
355.00	1524762.00
356.00	1984802.00
357.00	2465971.00
358.00	2940240.00
359.00	3345772.00
360.00	3646890.00
361.00	3776926.00
362.00	3743216.00
363.00	3538763.00
364.00	3197977.00
365.00	2749998.00
366.00	2260910.00
367.00	1771829.00
368.00	1331343.00
369.00	953230.00
370.00	655999.00
371.00	432216.00
372.00	276331.00
373.00	170905.00
374.00	105711.00
375.00	67674.00
376.00	47197.00
377.00	37549.00
378.00	34803.00
379.00	37738.00
380.00	44597.00
381.00	57431.00
382.00	75386.00
383.00	100898.00
384.00	135450.00
385.00	179856.00
386.00	234613.00
387.00	297718.00
388.00	364442.00
389.00	431880.00
390.00	492604.00
391.00	540895.00
392.00	569524.00
393.00	575363.00
394.00	556527.00
395.00	517713.00
396.00	461014.00
397.00	392280.00
398.00	320595.00
399.00	251609.00
400.00	189950.00
401.00	137721.00
402.00	96292.00
403.00	65255.00
404.00	43165.00
405.00	28289.00
406.00	18743.00
407.00	12831.00
408.00	9090.00
409.00	7293.00
410.00	6093.00
411.00	5513.00
412.00	5266.00
413.00	5145.00
414.00	5080.00
415.00	5125.00
416.00	5045.00
417.00	5235.00
418.00	5178.00
419.00	5292.00
420.00	5309.00
421.00	5366.00
422.00	5274.00
423.00	5724.00
424.00	5990.00
425.00	6316.00
426.00	7259.00
427.00	8289.00
428.00	10128.00
429.00	12779.00
430.00	16684.00
431.00	21934.00
432.00	28602.00
433.00	37369.00
434.00	48146.00
435.00	59698.00
436.00	71936.00
437.00	84990.00
438.00	96523.00
439.00	104838.00
440.00	110865.00
441.00	112938.00
442.00	110782.00
443.00	104666.00
444.00	94735.00
445.00	84035.00
446.00	72022.00
447.00	60061.00
448.00	49592.00
449.00	40217.00
450.00	33328.00
451.00	28313.00
452.00	24844.00
453.00	22350.00
454.00	20670.00
455.00	19321.00
456.00	18441.00
457.00	17487.00
458.00	16132.00
459.00	14854.00
460.00	13778.00
461.00	12587.00
462.00	11689.00
463.00	11080.00
464.00	10664.00
465.00	10756.00
466.00	10561.00
467.00	11158.00
468.00	12065.00
469.00	12860.00
470.00	13619.00
471.00	14996.00
472.00	16184.00
473.00	17501.00
474.00	18935.00
475.00	20961.00
476.00	22599.00
477.00	24696.00
478.00	26859.00
479.00	28256.00
480.00	30276.00
481.00	31128.00
482.00	31691.00
483.00	31497.00
484.00	30550.00
485.00	28922.00
486.00	26706.00
487.00	24507.00
488.00	22085.00
489.00	19537.00
490.00	17246.00
491.00	15223.00
492.00	13804.00
493.00	12251.00
494.00	11157.00
495.00	10790.00
496.00	10497.00
497.00	10403.00
498.00	10165.00
499.00	10264.00
500.00	10560.00
501.00	10818.00
502.00	11015.00
503.00	11693.00
504.00	11616.00
505.00	11880.00
506.00	12509.00
507.00	12931.00
508.00	13415.00
509.00	13816.00
510.00	14284.00
511.00	15109.00
512.00	15537.00
513.00	16181.00
514.00	16688.00
515.00	17531.00
516.00	18261.00
517.00	19484.00
518.00	19991.00
519.00	21491.00
520.00	23149.00
521.00	24709.00
522.00	26975.00
523.00	28726.00
524.00	31122.00
525.00	32986.00
526.00	35102.00
527.00	36324.00
528.00	37456.00
529.00	37581.00
530.00	37158.00
531.00	35769.00
532.00	34190.00
533.00	31706.00
534.00	29187.00
535.00	27241.00
536.00	24567.00
537.00	22810.00
538.00	21171.00
539.00	19562.00
540.00	18671.00
541.00	18170.00
542.00	17976.00
543.00	17368.00
544.00	17535.00
545.00	17725.00
546.00	17857.00
547.00	18184.00
548.00	18368.00
549.00	18441.00
550.00	18982.00
551.00	19002.00
552.00	19505.00
553.00	19668.00
554.00	19895.00
555.00	20491.00
556.00	20710.00
557.00	21087.00
558.00	21403.00
559.00	21853.00
560.00	21840.00
561.00	22599.00
562.00	23532.00
563.00	24416.00
564.00	25175.00
565.00	27066.00
566.00	29259.00
567.00	32116.00
568.00	34779.00
569.00	38367.00
570.00	41587.00
571.00	45967.00
572.00	49569.00
573.00	52895.00
574.00	55993.00
575.00	57965.00
576.00	58393.00
577.00	58201.00
578.00	56732.00
579.00	53968.00
580.00	50907.00
581.00	46772.00
582.00	42814.00
583.00	38280.00
584.00	34850.00
585.00	31335.00
586.00	28458.00
587.00	26031.00
588.00	24336.00
589.00	23151.00
590.00	22468.00
591.00	21726.00
592.00	21924.00
593.00	21684.00
594.00	22253.00
595.00	22548.00
596.00	23234.00
597.00	23715.00
598.00	24741.00
599.00	25415.00
600.00	26243.00
601.00	27804.00
602.00	29094.00
603.00	31269.00
604.00	34372.00
605.00	38905.00
606.00	44870.00
607.00	55862.00
608.00	70858.00
609.00	94700.00
610.00	129157.00
611.00	180184.00
612.00	251131.00
613.00	346788.00
614.00	475378.00
615.00	638975.00
616.00	838967.00
617.00	1075960.00
618.00	1344945.00
619.00	1637900.00
620.00	1937823.00
621.00	2222708.00
622.00	2486304.00
623.00	2698062.00
624.00	2835819.00
625.00	2897411.00
626.00	2874934.00
627.00	2768981.00
628.00	2582820.00
629.00	2340051.00
630.00	2061959.00
631.00	1766012.00
632.00	1466787.00
633.00	1185876.00
634.00	934398.00
635.00	715783.00
636.00	536565.00
637.00	394216.00
638.00	286031.00
639.00	204666.00
640.00	147850.00
641.00	107616.00
642.00	81156.00
643.00	63903.00
644.00	53146.00
645.00	45754.00
646.00	41624.00
647.00	39217.00
648.00	37894.00
649.00	36993.00
650.00	36697.00
651.00	36362.00
652.00	36545.00
653.00	36863.00
654.00	37210.00
655.00	37383.00
656.00	37906.00
657.00	37995.00
658.00	38218.00
659.00	39201.00
660.00	40033.00
661.00	40300.00
662.00	40925.00
663.00	41737.00
664.00	42751.00
665.00	44155.00
666.00	45302.00
667.00	46618.00
668.00	48175.00
669.00	50629.00
670.00	52924.00
671.00	56429.00
672.00	60823.00
673.00	67801.00
674.00	75093.00
675.00	85856.00
676.00	100193.00
677.00	117644.00
678.00	140627.00
679.00	169065.00
680.00	200366.00
681.00	239103.00
682.00	280465.00
683.00	322423.00
684.00	367093.00
685.00	406900.00
686.00	441153.00
687.00	469422.00
688.00	486387.00
689.00	494907.00
690.00	487361.00
691.00	469963.00
692.00	443448.00
693.00	407061.00
694.00	365867.00
695.00	321295.00
696.00	276652.00
697.00	233457.00
698.00	195065.00
699.00	160554.00
700.00	131603.00
701.00	108013.00
702.00	89943.00
703.00	75166.00
704.00	64691.00
705.00	57702.00
706.00	52900.00
707.00	49652.00
708.00	47357.00
709.00	46878.00
710.00	46135.00
711.00	46064.00
712.00	46544.00
713.00	47363.00
714.00	48507.00
715.00	49821.00
716.00	51193.00
717.00	51987.00
718.00	53810.00
719.00	56016.00
720.00	57249.00
721.00	58739.00
722.00	61539.00
723.00	62881.00
724.00	64689.00
725.00	66387.00
726.00	67536.00
727.00	68802.00
728.00	69308.00
729.00	70136.00
730.00	69530.00
731.00	68766.00
732.00	67491.00
733.00	65693.00
734.00	64559.00
735.00	62625.00
736.00	60723.00
737.00	59359.00
738.00	57907.00
739.00	55801.00
740.00	54635.00
741.00	53739.00
742.00	52969.00
743.00	51521.00
744.00	51191.00
745.00	50970.00
746.00	51200.00
747.00	50681.00
748.00	50492.00
749.00	51013.00
750.00	50529.00
751.00	50928.00
752.00	51224.00
753.00	51006.00
754.00	50938.00
755.00	51156.00
756.00	51286.00
757.00	51480.00
758.00	51376.00
759.00	51642.00
760.00	52216.00
761.00	52296.00
762.00	52444.00
763.00	53064.00
764.00	53407.00
765.00	54541.00
766.00	54537.00
767.00	55476.00
768.00	55853.00
769.00	56727.00
770.00	57676.00
771.00	58507.00
772.00	59486.00
773.00	60966.00
774.00	63004.00
775.00	64453.00
776.00	65862.00
777.00	68452.00
778.00	70411.00
779.00	72864.00
780.00	75404.00
781.00	78168.00
782.00	80801.00
783.00	83270.00
784.00	85677.00
785.00	88222.00
786.00	90561.00
787.00	93122.00
788.00	95089.00
789.00	96995.00
790.00	98920.00
791.00	100228.00
792.00	101291.00
793.00	103272.00
794.00	103114.00
795.00	106044.00
796.00	106400.00
797.00	107122.00
798.00	107184.00
799.00	108654.00
800.00	109423.00
801.00	109741.00
802.00	111353.00
803.00	112365.00
804.00	114568.00
805.00	116391.00
806.00	118874.00
807.00	122906.00
808.00	127741.00
809.00	132626.00
810.00	138042.00
811.00	146074.00
812.00	152782.00
813.00	160337.00
814.00	168301.00
815.00	176576.00
816.00	182984.00
817.00	187308.00
818.00	192094.00
819.00	193066.00
820.00	191986.00
821.00	189556.00
822.00	183974.00
823.00	177121.00
824.00	168818.00
825.00	160005.00
826.00	150336.00
827.00	141175.00
828.00	131636.00
829.00	123028.00
830.00	116110.00
831.00	110608.00
832.00	104507.00
833.00	101884.00
834.00	99163.00
835.00	97608.00
836.00	96184.00
837.00	96972.00
838.00	96557.00
839.00	96698.00
840.00	97714.00
841.00	97754.00
842.00	97492.00
843.00	98763.00
844.00	98376.00
845.00	97969.00
846.00	97778.00
847.00	96362.00
848.00	96252.00
849.00	95182.00
850.00	93630.00
851.00	93478.00
852.00	92921.00
853.00	91617.00
854.00	91807.00
855.00	90684.00
856.00	90503.00
857.00	90395.00
858.00	90081.00
859.00	90180.00
860.00	90096.00
861.00	90599.00
862.00	91373.00
863.00	91078.00
864.00	91414.00
865.00	91459.00
866.00	92370.00
867.00	91923.00
868.00	93015.00
869.00	92917.00
870.00	93002.00
871.00	93364.00
872.00	93160.00
873.00	93641.00
874.00	94443.00
875.00	94145.00
876.00	94188.00
877.00	94941.00
878.00	95178.00
879.00	96169.00
880.00	95385.00
881.00	96643.00
882.00	97118.00
883.00	97509.00
884.00	98148.00
885.00	99223.00
886.00	99753.00
887.00	100252.00
888.00	101985.00
889.00	102474.00
890.00	103757.00
891.00	105104.00
892.00	106677.00
893.00	107494.00
894.00	110240.00
895.00	110161.00
896.00	112237.00
897.00	114354.00
898.00	115885.00
899.00	117558.00
900.00	118632.00
901.00	120862.00
902.00	121859.00
903.00	123999.00
904.00	125183.00
905.00	126471.00
906.00	127709.00
907.00	128733.00
908.00	129842.00
909.00	131534.00
910.00	131594.00
911.00	132669.00
912.00	134700.00
913.00	134756.00
914.00	135143.00
915.00	136034.00
916.00	136724.00
917.00	137633.00
918.00	137988.00
919.00	138522.00
920.00	139360.00
921.00	139391.00
922.00	140227.00
923.00	141344.00
924.00	142668.00
925.00	143859.00
926.00	144834.00
927.00	145475.00
928.00	147530.00
929.00	148680.00
930.00	150222.00
931.00	152326.00
932.00	155213.00
933.00	157327.00
934.00	160700.00
935.00	163814.00
936.00	166624.00
937.00	170844.00
938.00	173864.00
939.00	177900.00
940.00	180173.00
941.00	182221.00
942.00	185327.00
943.00	185877.00
944.00	185437.00
945.00	185097.00
946.00	182366.00
947.00	180365.00
948.00	177375.00
949.00	172682.00
950.00	169006.00
951.00	163599.00
952.00	159330.00
953.00	156098.00
954.00	153294.00
955.00	149838.00
956.00	146675.00
957.00	144509.00
958.00	143035.00
959.00	142225.00
960.00	141132.00
961.00	140866.00
962.00	139416.00
963.00	140356.00
964.00	140454.00
965.00	141015.00
966.00	141770.00
967.00	142512.00
968.00	142441.00
969.00	143727.00
970.00	144114.00
971.00	144309.00
972.00	143792.00
973.00	143373.00
974.00	142493.00
975.00	141395.00
976.00	140289.00
977.00	139319.00
978.00	137150.00
979.00	136241.00
980.00	134128.00
981.00	133231.00
982.00	131086.00
983.00	130312.00
984.00	128521.00
985.00	127783.00
986.00	127491.00
987.00	125542.00
988.00	125373.00
989.00	125127.00
990.00	124726.00
991.00	124378.00
992.00	123695.00
993.00	123660.00
994.00	123357.00
995.00	122971.00
996.00	122424.00
997.00	122640.00
998.00	122449.00
999.00	121509.00
1000.00	121869.00
1001.00	121537.00
1002.00	121548.00
1003.00	122066.00
1004.00	121634.00
1005.00	122188.00
1006.00	121713.00
1007.00	121413.00
1008.00	121872.00
1009.00	122516.00
1010.00	122239.00
1011.00	122193.00
1012.00	122865.00
1013.00	122305.00
1014.00	122863.00
1015.00	123259.00
1016.00	123862.00
1017.00	123886.00
1018.00	124171.00
1019.00	124511.00
1020.00	125283.00
1021.00	125732.00
1022.00	126693.00
1023.00	126894.00
1024.00	127757.00
1025.00	128183.00
1026.00	128096.00
1027.00	128808.00
1028.00	128680.00
1029.00	128853.00
1030.00	129163.00
1031.00	129502.00
1032.00	129673.00
1033.00	129387.00
1034.00	129204.00
1035.00	128468.00
1036.00	128731.00
1037.00	128819.00
1038.00	128181.00
1039.00	129111.00
1040.00	128942.00
1041.00	128875.00
1042.00	129096.00
1043.00	129699.00
1044.00	130201.00
1045.00	129945.00
1046.00	130117.00
1047.00	131304.00
1048.00	131150.00
1049.00	131743.00
1050.00	131888.00
1051.00	132700.00
1052.00	132793.00
1053.00	133155.00
1054.00	133870.00
1055.00	134392.00
1056.00	135036.00
1057.00	136159.00
1058.00	136311.00
1059.00	136396.00
1060.00	136402.00
1061.00	136851.00
1062.00	137586.00
1063.00	137447.00
1064.00	137897.00
1065.00	138147.00
1066.00	138541.00
1067.00	138932.00
1068.00	139175.00
1069.00	139380.00
1070.00	139272.00
1071.00	139638.00
1072.00	139439.00
1073.00	139179.00
1074.00	138875.00
1075.00	139564.00
1076.00	139127.00
1077.00	139525.00
1078.00	140006.00
1079.00	139525.00
1080.00	139238.00
1081.00	139761.00
1082.00	140019.00
1083.00	140806.00
1084.00	140448.00
1085.00	140585.00
1086.00	140637.00
1087.00	141993.00
1088.00	142313.00
1089.00	142298.00
1090.00	142938.00
1091.00	143810.00
1092.00	145622.00
1093.00	145815.00
1094.00	147221.00
1095.00	147981.00
1096.00	147537.00
1097.00	149472.00
1098.00	148985.00
1099.00	150521.00
1100.00	150270.00
1101.00	150565.00
1102.00	150551.00
1103.00	150520.00
1104.00	150164.00
1105.00	150552.00
1106.00	149511.00
1107.00	148283.00
1108.00	148332.00
1109.00	148577.00
1110.00	147775.00
1111.00	147082.00
1112.00	146676.00
1113.00	146577.00
1114.00	145856.00
1115.00	146130.00
1116.00	145156.00
1117.00	145895.00
1118.00	145427.00
1119.00	145897.00
1120.00	146196.00
1121.00	145772.00
1122.00	146436.00
1123.00	146379.00
1124.00	146803.00
1125.00	147113.00
1126.00	148031.00
1127.00	146553.00
1128.00	147530.00
1129.00	147952.00
1130.00	148061.00
1131.00	148289.00
1132.00	148366.00
1133.00	147567.00
1134.00	147915.00
1135.00	147885.00
1136.00	148420.00
1137.00	148637.00
1138.00	149066.00
1139.00	148768.00
1140.00	148789.00
1141.00	149620.00
1142.00	150513.00
1143.00	149764.00
1144.00	150762.00
1145.00	151100.00
1146.00	152878.00
1147.00	153447.00
1148.00	155197.00
1149.00	156943.00
1150.00	158837.00
1151.00	161128.00
1152.00	163903.00
1153.00	166784.00
1154.00	169192.00
1155.00	172048.00
1156.00	173780.00
1157.00	177055.00
1158.00	177732.00
1159.00	180564.00
1160.00	182433.00
1161.00	182508.00
1162.00	183030.00
1163.00	182802.00
1164.00	181800.00
1165.00	180125.00
1166.00	178731.00
1167.00	176461.00
1168.00	173808.00
1169.00	170795.00
1170.00	168641.00
1171.00	165769.00
1172.00	163391.00
1173.00	160300.00
1174.00	157840.00
1175.00	156175.00
1176.00	154556.00
1177.00	152773.00
1178.00	151631.00
1179.00	150097.00
1180.00	150722.00
1181.00	149561.00
1182.00	149534.00
1183.00	149096.00
1184.00	148331.00
1185.00	147877.00
1186.00	148689.00
