Date:	31/01/2022		
Time:	12:42		
Sample name:	JC36_74_1		
Position:	548.000018	mm	
Sample surface:	8.484153	cm	
Tube anode:	Mo		
Tube voltage:	30	kV	
Tube current:	30	mA	
Comments	not in position		
Gain	2.150000		
peaking_time	0.300000	m-sec	
trigger_threshold	40.000000	V	
mca_bin_width	2.000000	no:	
number_mca_channels	2048.000000	no:	
gap_time	0.100000	m-sec	
trigger_peaking_time	0.050000	m-sec	
livetime	10.910156	seconds	
runtime	15.000345	seconds	
input_count_rate	122416.942579	cps	
output_count_rate	89037.152146	cps	
triggers	1725582.000000	seconds	
events_in_run	1252975.000000	seconds	
channel	content		
 1.00	 0.00
 2.00	 0.00
 3.00	 0.00
 4.00	 0.00
 5.00	 0.00
 6.00	 0.00
 7.00	 0.00
 8.00	 0.00
 9.00	 0.00
10.00	 0.00
11.00	 0.00
12.00	 0.00
13.00	 0.00
14.00	 0.00
15.00	 0.00
16.00	 0.00
17.00	 0.00
18.00	 0.00
19.00	 0.00
20.00	 0.00
21.00	 0.00
22.00	 0.00
23.00	 0.00
24.00	 0.00
25.00	 0.00
26.00	 0.00
27.00	 0.00
28.00	 0.00
29.00	 0.00
30.00	 0.00
31.00	149.00
32.00	141.00
33.00	167.00
34.00	156.00
35.00	146.00
36.00	155.00
37.00	152.00
38.00	154.00
39.00	160.00
40.00	148.00
41.00	141.00
42.00	164.00
43.00	154.00
44.00	162.00
45.00	155.00
46.00	189.00
47.00	203.00
48.00	275.00
49.00	331.00
50.00	478.00
51.00	637.00
52.00	947.00
53.00	1196.00
54.00	1604.00
55.00	2243.00
56.00	2925.00
57.00	4149.00
58.00	5682.00
59.00	8083.00
60.00	10190.00
61.00	11764.00
62.00	13009.00
63.00	13640.00
64.00	13632.00
65.00	13138.00
66.00	12786.00
67.00	12194.00
68.00	12113.00
69.00	11681.00
70.00	11606.00
71.00	11367.00
72.00	11292.00
73.00	11086.00
74.00	11197.00
75.00	11069.00
76.00	10871.00
77.00	11097.00
78.00	11017.00
79.00	10971.00
80.00	11053.00
81.00	11061.00
82.00	11152.00
83.00	11516.00
84.00	11607.00
85.00	11589.00
86.00	11844.00
87.00	11553.00
88.00	11461.00
89.00	11138.00
90.00	10672.00
91.00	10226.00
92.00	10031.00
93.00	9978.00
94.00	9800.00
95.00	9518.00
96.00	9457.00
97.00	9320.00
98.00	9126.00
99.00	9161.00
100.00	8995.00
101.00	9062.00
102.00	8816.00
103.00	8909.00
104.00	8557.00
105.00	8658.00
106.00	8368.00
107.00	8399.00
108.00	8219.00
109.00	8293.00
110.00	7882.00
111.00	8005.00
112.00	7837.00
113.00	7683.00
114.00	7636.00
115.00	7457.00
116.00	7592.00
117.00	7512.00
118.00	7371.00
119.00	7334.00
120.00	7289.00
121.00	7259.00
122.00	7022.00
123.00	7040.00
124.00	6821.00
125.00	6704.00
126.00	6760.00
127.00	6462.00
128.00	6420.00
129.00	6315.00
130.00	6268.00
131.00	6192.00
132.00	6053.00
133.00	6243.00
134.00	6030.00
135.00	6010.00
136.00	6068.00
137.00	6108.00
138.00	5980.00
139.00	6067.00
140.00	6387.00
141.00	6668.00
142.00	7021.00
143.00	7337.00
144.00	7514.00
145.00	7771.00
146.00	7870.00
147.00	7626.00
148.00	7289.00
149.00	7112.00
150.00	6970.00
151.00	6607.00
152.00	6589.00
153.00	6476.00
154.00	6214.00
155.00	6157.00
156.00	6164.00
157.00	5521.00
158.00	5571.00
159.00	5233.00
160.00	5281.00
161.00	5413.00
162.00	6098.00
163.00	7292.00
164.00	9098.00
165.00	11617.00
166.00	15239.00
167.00	18942.00
168.00	23123.00
169.00	26061.00
170.00	28369.00
171.00	28388.00
172.00	27015.00
173.00	24174.00
174.00	20387.00
175.00	16989.00
176.00	13714.00
177.00	11077.00
178.00	9227.00
179.00	8276.00
180.00	7694.00
181.00	7532.00
182.00	7964.00
183.00	8315.00
184.00	9364.00
185.00	11112.00
186.00	13094.00
187.00	15551.00
188.00	18492.00
189.00	20612.00
190.00	22339.00
191.00	22453.00
192.00	21816.00
193.00	20432.00
194.00	17629.00
195.00	14527.00
196.00	11532.00
197.00	9318.00
198.00	7513.00
199.00	5963.00
200.00	5108.00
201.00	4526.00
202.00	4406.00
203.00	4074.00
204.00	4002.00
205.00	3996.00
206.00	3988.00
207.00	3949.00
208.00	3955.00
209.00	3813.00
210.00	3856.00
211.00	3974.00
212.00	3982.00
213.00	4003.00
214.00	4197.00
215.00	4243.00
216.00	4566.00
217.00	4926.00
218.00	5359.00
219.00	5800.00
220.00	6429.00
221.00	7252.00
222.00	7707.00
223.00	8341.00
224.00	8310.00
225.00	8390.00
226.00	8107.00
227.00	7686.00
228.00	7200.00
229.00	6497.00
230.00	5712.00
231.00	5127.00
232.00	4644.00
233.00	4122.00
234.00	3784.00
235.00	3560.00
236.00	3402.00
237.00	3464.00
238.00	3308.00
239.00	3336.00
240.00	3472.00
241.00	3467.00
242.00	3750.00
243.00	3741.00
244.00	4235.00
245.00	5135.00
246.00	6298.00
247.00	8282.00
248.00	11751.00
249.00	16691.00
250.00	23327.00
251.00	32430.00
252.00	43468.00
253.00	55173.00
254.00	66718.00
255.00	77288.00
256.00	83888.00
257.00	86683.00
258.00	83891.00
259.00	77128.00
260.00	67084.00
261.00	54903.00
262.00	43254.00
263.00	32129.00
264.00	22767.00
265.00	16208.00
266.00	11632.00
267.00	8948.00
268.00	7478.00
269.00	7195.00
270.00	7404.00
271.00	8288.00
272.00	9363.00
273.00	10455.00
274.00	11299.00
275.00	11960.00
276.00	12198.00
277.00	12138.00
278.00	11121.00
279.00	10625.00
280.00	9968.00
281.00	9393.00
282.00	9233.00
283.00	9731.00
284.00	10710.00
285.00	12280.00
286.00	14049.00
287.00	15965.00
288.00	17525.00
289.00	18417.00
290.00	18409.00
291.00	17962.00
292.00	16678.00
293.00	14825.00
294.00	12492.00
295.00	10212.00
296.00	8257.00
297.00	6543.00
298.00	5355.00
299.00	4479.00
300.00	3898.00
301.00	3540.00
302.00	3388.00
303.00	3379.00
304.00	3365.00
305.00	3677.00
306.00	3908.00
307.00	4205.00
308.00	4453.00
309.00	4896.00
310.00	5496.00
311.00	6014.00
312.00	7199.00
313.00	8699.00
314.00	10879.00
315.00	14378.00
316.00	19140.00
317.00	25628.00
318.00	33582.00
319.00	43667.00
320.00	55097.00
321.00	66152.00
322.00	76855.00
323.00	84133.00
324.00	88552.00
325.00	88362.00
326.00	84473.00
327.00	76567.00
328.00	66216.00
329.00	54362.00
330.00	43199.00
331.00	32681.00
332.00	23473.00
333.00	17185.00
334.00	12050.00
335.00	8723.00
336.00	6724.00
337.00	5674.00
338.00	5164.00
339.00	5287.00
340.00	5845.00
341.00	6914.00
342.00	8120.00
343.00	10167.00
344.00	12916.00
345.00	17277.00
346.00	23726.00
347.00	33165.00
348.00	48602.00
349.00	72767.00
350.00	108718.00
351.00	161915.00
352.00	240608.00
353.00	346331.00
354.00	486114.00
355.00	656402.00
356.00	853897.00
357.00	1062133.00
358.00	1265995.00
359.00	1440990.00
360.00	1567161.00
361.00	1625009.00
362.00	1609259.00
363.00	1525534.00
364.00	1376297.00
365.00	1182012.00
366.00	974477.00
367.00	763184.00
368.00	573190.00
369.00	409664.00
370.00	282093.00
371.00	185676.00
372.00	118880.00
373.00	73927.00
374.00	45613.00
375.00	29487.00
376.00	20456.00
377.00	16591.00
378.00	15137.00
379.00	16898.00
380.00	20048.00
381.00	25363.00
382.00	33343.00
383.00	44107.00
384.00	59520.00
385.00	78347.00
386.00	101953.00
387.00	129564.00
388.00	158367.00
389.00	188850.00
390.00	214541.00
391.00	237000.00
392.00	249016.00
393.00	250042.00
394.00	242391.00
395.00	225065.00
396.00	200620.00
397.00	170773.00
398.00	139907.00
399.00	109322.00
400.00	82759.00
401.00	59868.00
402.00	41920.00
403.00	28669.00
404.00	19320.00
405.00	12387.00
406.00	8379.00
407.00	5775.00
408.00	4250.00
409.00	3435.00
410.00	2877.00
411.00	2673.00
412.00	2537.00
413.00	2592.00
414.00	2482.00
415.00	2567.00
416.00	2588.00
417.00	2544.00
418.00	2580.00
419.00	2585.00
420.00	2645.00
421.00	2658.00
422.00	2789.00
423.00	2871.00
424.00	3087.00
425.00	3248.00
426.00	3472.00
427.00	4140.00
428.00	4779.00
429.00	5821.00
430.00	7624.00
431.00	9679.00
432.00	12646.00
433.00	16178.00
434.00	20696.00
435.00	25371.00
436.00	30971.00
437.00	36161.00
438.00	41158.00
439.00	44933.00
440.00	47094.00
441.00	47887.00
442.00	47352.00
443.00	43896.00
444.00	40477.00
445.00	35545.00
446.00	30697.00
447.00	25787.00
448.00	21162.00
449.00	17658.00
450.00	14675.00
451.00	12492.00
452.00	10697.00
453.00	10031.00
454.00	9131.00
455.00	8741.00
456.00	8345.00
457.00	7808.00
458.00	7588.00
459.00	6965.00
460.00	6476.00
461.00	6175.00
462.00	5791.00
463.00	5493.00
464.00	5304.00
465.00	5280.00
466.00	5312.00
467.00	5728.00
468.00	6012.00
469.00	6458.00
470.00	6981.00
471.00	7506.00
472.00	8023.00
473.00	8662.00
474.00	9483.00
475.00	10110.00
476.00	11042.00
477.00	12088.00
478.00	12608.00
479.00	13621.00
480.00	13978.00
481.00	14546.00
482.00	14881.00
483.00	14774.00
484.00	14272.00
485.00	13614.00
486.00	12807.00
487.00	11859.00
488.00	10613.00
489.00	9681.00
490.00	8495.00
491.00	7787.00
492.00	6995.00
493.00	6481.00
494.00	6201.00
495.00	5844.00
496.00	5784.00
497.00	5432.00
498.00	5502.00
499.00	5527.00
500.00	5609.00
501.00	5943.00
502.00	5991.00
503.00	6144.00
504.00	6293.00
505.00	6540.00
506.00	6798.00
507.00	7086.00
508.00	7147.00
509.00	7507.00
510.00	7720.00
511.00	8097.00
512.00	8335.00
513.00	8847.00
514.00	8931.00
515.00	9565.00
516.00	10014.00
517.00	10463.00
518.00	11153.00
519.00	11952.00
520.00	12452.00
521.00	13759.00
522.00	14742.00
523.00	15688.00
524.00	17086.00
525.00	18049.00
526.00	19187.00
527.00	19880.00
528.00	20281.00
529.00	20401.00
530.00	20400.00
531.00	19391.00
532.00	18943.00
533.00	17280.00
534.00	16111.00
535.00	14784.00
536.00	13427.00
537.00	12613.00
538.00	11762.00
539.00	11103.00
540.00	10434.00
541.00	10109.00
542.00	9963.00
543.00	9833.00
544.00	9970.00
545.00	9775.00
546.00	10008.00
547.00	10077.00
548.00	10322.00
549.00	10691.00
550.00	10549.00
551.00	10909.00
552.00	10916.00
553.00	11151.00
554.00	11353.00
555.00	11620.00
556.00	11812.00
557.00	11986.00
558.00	12276.00
559.00	12249.00
560.00	12670.00
561.00	12963.00
562.00	13195.00
563.00	13677.00
564.00	14462.00
565.00	15013.00
566.00	16093.00
567.00	17108.00
568.00	18510.00
569.00	20146.00
570.00	22001.00
571.00	23735.00
572.00	25758.00
573.00	27355.00
574.00	28627.00
575.00	29413.00
576.00	29761.00
577.00	29373.00
578.00	28466.00
579.00	27231.00
580.00	25650.00
581.00	23477.00
582.00	21663.00
583.00	19961.00
584.00	18309.00
585.00	16457.00
586.00	15257.00
587.00	13905.00
588.00	13052.00
589.00	12435.00
590.00	12182.00
591.00	11915.00
592.00	11555.00
593.00	11796.00
594.00	11744.00
595.00	12141.00
596.00	12338.00
597.00	12203.00
598.00	12908.00
599.00	13493.00
600.00	14064.00
601.00	14499.00
602.00	15229.00
603.00	16247.00
604.00	17491.00
605.00	19291.00
606.00	22082.00
607.00	26357.00
608.00	32956.00
609.00	42728.00
610.00	56806.00
611.00	77563.00
612.00	108240.00
613.00	148089.00
614.00	200354.00
615.00	269284.00
616.00	352908.00
617.00	452853.00
618.00	563421.00
619.00	685846.00
620.00	809580.00
621.00	928634.00
622.00	1036346.00
623.00	1125512.00
624.00	1183298.00
625.00	1208086.00
626.00	1199368.00
627.00	1154273.00
628.00	1077029.00
629.00	977861.00
630.00	861157.00
631.00	738573.00
632.00	613901.00
633.00	497410.00
634.00	392416.00
635.00	302213.00
636.00	227544.00
637.00	168575.00
638.00	123171.00
639.00	89706.00
640.00	66342.00
641.00	49560.00
642.00	38423.00
643.00	31052.00
644.00	26490.00
645.00	23469.00
646.00	22428.00
647.00	21128.00
648.00	20436.00
649.00	20257.00
650.00	19915.00
651.00	19831.00
652.00	19874.00
653.00	19831.00
654.00	19930.00
655.00	20289.00
656.00	20430.00
657.00	20697.00
658.00	20799.00
659.00	20844.00
660.00	21193.00
661.00	21449.00
662.00	21849.00
663.00	22365.00
664.00	22720.00
665.00	23340.00
666.00	23567.00
667.00	24294.00
668.00	25016.00
669.00	26256.00
670.00	27519.00
671.00	28711.00
672.00	30873.00
673.00	33301.00
674.00	36507.00
675.00	41205.00
676.00	47453.00
677.00	55032.00
678.00	64131.00
679.00	75937.00
680.00	89531.00
681.00	105338.00
682.00	122791.00
683.00	139980.00
684.00	158120.00
685.00	176276.00
686.00	190518.00
687.00	202466.00
688.00	210604.00
689.00	212064.00
690.00	209630.00
691.00	202525.00
692.00	190266.00
693.00	175817.00
694.00	158200.00
695.00	139903.00
696.00	121419.00
697.00	102938.00
698.00	87360.00
699.00	72833.00
700.00	60734.00
701.00	50663.00
702.00	43303.00
703.00	37248.00
704.00	32811.00
705.00	29792.00
706.00	27826.00
707.00	26818.00
708.00	26196.00
709.00	25700.00
710.00	25844.00
711.00	26071.00
712.00	26614.00
713.00	26857.00
714.00	27308.00
715.00	27869.00
716.00	28683.00
717.00	29531.00
718.00	30393.00
719.00	31061.00
720.00	32361.00
721.00	33219.00
722.00	34102.00
723.00	35287.00
724.00	36138.00
725.00	37197.00
726.00	37907.00
727.00	38460.00
728.00	38563.00
729.00	39036.00
730.00	39223.00
731.00	38634.00
732.00	38220.00
733.00	37558.00
734.00	36343.00
735.00	35676.00
736.00	34405.00
737.00	33574.00
738.00	32928.00
739.00	31772.00
740.00	31398.00
741.00	30650.00
742.00	30351.00
743.00	29788.00
744.00	29571.00
745.00	29410.00
746.00	29542.00
747.00	29219.00
748.00	29182.00
749.00	29580.00
750.00	28922.00
751.00	29065.00
752.00	29024.00
753.00	29400.00
754.00	28863.00
755.00	28992.00
756.00	29079.00
757.00	29492.00
758.00	29383.00
759.00	29598.00
760.00	29510.00
761.00	29589.00
762.00	29870.00
763.00	30291.00
764.00	30312.00
765.00	30603.00
766.00	30745.00
767.00	31192.00
768.00	31382.00
769.00	31846.00
770.00	31974.00
771.00	32743.00
772.00	33536.00
773.00	34053.00
774.00	34934.00
775.00	35733.00
776.00	36938.00
777.00	38151.00
778.00	38615.00
779.00	40074.00
780.00	41367.00
781.00	43233.00
782.00	44614.00
783.00	45973.00
784.00	47717.00
785.00	49238.00
786.00	50267.00
787.00	51460.00
788.00	53001.00
789.00	54652.00
790.00	55598.00
791.00	56873.00
792.00	57317.00
793.00	58404.00
794.00	59070.00
795.00	59784.00
796.00	60867.00
797.00	61115.00
798.00	62119.00
799.00	61747.00
800.00	62659.00
801.00	63604.00
802.00	63992.00
803.00	64629.00
804.00	65451.00
805.00	66872.00
806.00	68721.00
807.00	70324.00
808.00	73463.00
809.00	75641.00
810.00	79827.00
811.00	83569.00
812.00	88415.00
813.00	92847.00
814.00	97308.00
815.00	101784.00
816.00	105319.00
817.00	108249.00
818.00	110252.00
819.00	111598.00
820.00	111074.00
821.00	109292.00
822.00	105644.00
823.00	102178.00
824.00	97744.00
825.00	91987.00
826.00	86506.00
827.00	80891.00
828.00	75449.00
829.00	70631.00
830.00	66181.00
831.00	63085.00
832.00	59960.00
833.00	58010.00
834.00	55815.00
835.00	54760.00
836.00	54564.00
837.00	53829.00
838.00	53704.00
839.00	53735.00
840.00	53996.00
841.00	54149.00
842.00	53409.00
843.00	53823.00
844.00	54117.00
845.00	54402.00
846.00	53816.00
847.00	53474.00
848.00	53173.00
849.00	52856.00
850.00	52278.00
851.00	52212.00
852.00	51765.00
853.00	51773.00
854.00	51640.00
855.00	51485.00
856.00	51135.00
857.00	51597.00
858.00	51019.00
859.00	51396.00
860.00	51432.00
861.00	51081.00
862.00	50904.00
863.00	51359.00
864.00	51222.00
865.00	51862.00
866.00	51934.00
867.00	52205.00
868.00	52390.00
869.00	52645.00
870.00	52795.00
871.00	52690.00
872.00	53126.00
873.00	52977.00
874.00	53488.00
875.00	53415.00
876.00	53590.00
877.00	53865.00
878.00	53718.00
879.00	53805.00
880.00	54480.00
881.00	54881.00
882.00	55065.00
883.00	55223.00
884.00	56099.00
885.00	56411.00
886.00	56637.00
887.00	56699.00
888.00	57635.00
889.00	58343.00
890.00	59031.00
891.00	59795.00
892.00	59966.00
893.00	61210.00
894.00	61996.00
895.00	62998.00
896.00	63690.00
897.00	64709.00
898.00	65788.00
899.00	66501.00
900.00	67753.00
901.00	68211.00
902.00	69324.00
903.00	70115.00
904.00	70651.00
905.00	71564.00
906.00	72606.00
907.00	72907.00
908.00	73974.00
909.00	74425.00
910.00	74630.00
911.00	75812.00
912.00	76271.00
913.00	76559.00
914.00	77008.00
915.00	77164.00
916.00	77872.00
917.00	78477.00
918.00	78733.00
919.00	78373.00
920.00	79293.00
921.00	79656.00
922.00	80405.00
923.00	81227.00
924.00	81205.00
925.00	81915.00
926.00	82392.00
927.00	83215.00
928.00	83552.00
929.00	84426.00
930.00	85581.00
931.00	86800.00
932.00	88169.00
933.00	89930.00
934.00	91300.00
935.00	93584.00
936.00	95277.00
937.00	97607.00
938.00	99456.00
939.00	101836.00
940.00	103637.00
941.00	104837.00
942.00	105423.00
943.00	105808.00
944.00	105943.00
945.00	105053.00
946.00	104492.00
947.00	103002.00
948.00	100410.00
949.00	99218.00
950.00	96202.00
951.00	94129.00
952.00	91455.00
953.00	89919.00
954.00	87465.00
955.00	85420.00
956.00	84218.00
957.00	82580.00
958.00	82201.00
959.00	80935.00
960.00	80610.00
961.00	80145.00
962.00	80409.00
963.00	80025.00
964.00	80464.00
965.00	80572.00
966.00	80719.00
967.00	81112.00
968.00	81832.00
969.00	81426.00
970.00	82317.00
971.00	82141.00
972.00	82446.00
973.00	81894.00
974.00	81649.00
975.00	80604.00
976.00	80065.00
977.00	78954.00
978.00	78030.00
979.00	76982.00
980.00	76248.00
981.00	74892.00
982.00	73783.00
983.00	73689.00
984.00	72608.00
985.00	72248.00
986.00	71506.00
987.00	71339.00
988.00	70602.00
989.00	70971.00
990.00	70132.00
991.00	70140.00
992.00	69869.00
993.00	70121.00
994.00	69772.00
995.00	70073.00
996.00	69419.00
997.00	69185.00
998.00	69435.00
999.00	69112.00
1000.00	68836.00
1001.00	69426.00
1002.00	68965.00
1003.00	69438.00
1004.00	69456.00
1005.00	69365.00
1006.00	69363.00
1007.00	69152.00
1008.00	69278.00
1009.00	69154.00
1010.00	70088.00
1011.00	69491.00
1012.00	70405.00
1013.00	69683.00
1014.00	70249.00
1015.00	70219.00
1016.00	70075.00
1017.00	70100.00
1018.00	70374.00
1019.00	71244.00
1020.00	70688.00
1021.00	70947.00
1022.00	71400.00
1023.00	71195.00
1024.00	72144.00
1025.00	72327.00
1026.00	72606.00
1027.00	72783.00
1028.00	72910.00
1029.00	73090.00
1030.00	72941.00
1031.00	72489.00
1032.00	72979.00
1033.00	72659.00
1034.00	72535.00
1035.00	72766.00
1036.00	72503.00
1037.00	72961.00
1038.00	72999.00
1039.00	72908.00
1040.00	72640.00
1041.00	72341.00
1042.00	72405.00
1043.00	72998.00
1044.00	72827.00
1045.00	73496.00
1046.00	73618.00
1047.00	73880.00
1048.00	73929.00
1049.00	73661.00
1050.00	73720.00
1051.00	74697.00
1052.00	74334.00
1053.00	74924.00
1054.00	75326.00
1055.00	75588.00
1056.00	75953.00
1057.00	76466.00
1058.00	75801.00
1059.00	76057.00
1060.00	76665.00
1061.00	76670.00
1062.00	77091.00
1063.00	77214.00
1064.00	77477.00
1065.00	77934.00
1066.00	77930.00
1067.00	78032.00
1068.00	78228.00
1069.00	78330.00
1070.00	78335.00
1071.00	78761.00
1072.00	78456.00
1073.00	78815.00
1074.00	78820.00
1075.00	78757.00
1076.00	78894.00
1077.00	78485.00
1078.00	78677.00
1079.00	78261.00
1080.00	78488.00
1081.00	78455.00
1082.00	79095.00
1083.00	78483.00
1084.00	79062.00
1085.00	78907.00
1086.00	79546.00
1087.00	79581.00
1088.00	79881.00
1089.00	80404.00
1090.00	80111.00
1091.00	81121.00
1092.00	81970.00
1093.00	82274.00
1094.00	82582.00
1095.00	82505.00
1096.00	83323.00
1097.00	83110.00
1098.00	84652.00
1099.00	84440.00
1100.00	84134.00
1101.00	85160.00
1102.00	84548.00
1103.00	85204.00
1104.00	84905.00
1105.00	84778.00
1106.00	84122.00
1107.00	84124.00
1108.00	84151.00
1109.00	84254.00
1110.00	83936.00
1111.00	83273.00
1112.00	82516.00
1113.00	82809.00
1114.00	82213.00
1115.00	82556.00
1116.00	82224.00
1117.00	82297.00
1118.00	82371.00
1119.00	82801.00
1120.00	82314.00
1121.00	82914.00
1122.00	82479.00
1123.00	82569.00
1124.00	82939.00
1125.00	83095.00
1126.00	83483.00
1127.00	82877.00
1128.00	82671.00
1129.00	83779.00
1130.00	83056.00
1131.00	83623.00
1132.00	83430.00
1133.00	84160.00
1134.00	83547.00
1135.00	84234.00
1136.00	84140.00
1137.00	84136.00
1138.00	84219.00
1139.00	83761.00
1140.00	83674.00
1141.00	84170.00
1142.00	83915.00
1143.00	84122.00
1144.00	84658.00
1145.00	84801.00
1146.00	85295.00
1147.00	86153.00
1148.00	86537.00
1149.00	87422.00
1150.00	87838.00
1151.00	89128.00
1152.00	89941.00
1153.00	91364.00
1154.00	93095.00
1155.00	94463.00
1156.00	95309.00
1157.00	97320.00
1158.00	97898.00
1159.00	98664.00
1160.00	98849.00
1161.00	99505.00
1162.00	99836.00
1163.00	99117.00
1164.00	99284.00
1165.00	97961.00
1166.00	96984.00
1167.00	96338.00
1168.00	95002.00
1169.00	93568.00
1170.00	92552.00
1171.00	91247.00
1172.00	90220.00
1173.00	88951.00
1174.00	88143.00
1175.00	86968.00
1176.00	85844.00
1177.00	85446.00
1178.00	84899.00
1179.00	84055.00
1180.00	84098.00
1181.00	84061.00
1182.00	83484.00
1183.00	83621.00
1184.00	83549.00
1185.00	82539.00
1186.00	82732.00
1187.00	82929.00
1188.00	83331.00
1189.00	82992.00
1190.00	82958.00
1191.00	83325.00
1192.00	83401.00
1193.00	83117.00
1194.00	84060.00
1195.00	83967.00
1196.00	83821.00
1197.00	83519.00
1198.00	84632.00
1199.00	83980.00
1200.00	84388.00
1201.00	84676.00
1202.00	85050.00
1203.00	85225.00
1204.00	84706.00
1205.00	84693.00
1206.00	85337.00
1207.00	85293.00
1208.00	85060.00
1209.00	85879.00
1210.00	85575.00
1211.00	85335.00
1212.00	85197.00
1213.00	86112.00
1214.00	86210.00
1215.00	86404.00
1216.00	85838.00
1217.00	86148.00
1218.00	86278.00
1219.00	86787.00
1220.00	86859.00
