Date:	31/01/2022		
Time:	16:12		
Sample name:	JC36_74_3		
Position:	196.000018	mm	
Sample surface:	7.657784	cm	
Tube anode:	Mo		
Tube voltage:	30	kV	
Tube current:	30	mA	
Comments	not in position		
Gain	2.150000		
peaking_time	0.300000	m-sec	
trigger_threshold	40.000000	V	
mca_bin_width	2.000000	no:	
number_mca_channels	2048.000000	no:	
gap_time	0.100000	m-sec	
trigger_peaking_time	0.050000	m-sec	
livetime	12.406605	seconds	
runtime	15.000126	seconds	
input_count_rate	92432.535880	cps	
output_count_rate	76450.957812	cps	
triggers	1334963.000000	seconds	
events_in_run	1103758.000000	seconds	
channel	content		
 1.00	 0.00
 2.00	 0.00
 3.00	 0.00
 4.00	 0.00
 5.00	 0.00
 6.00	 0.00
 7.00	 0.00
 8.00	 0.00
 9.00	 0.00
10.00	 0.00
11.00	 0.00
12.00	 0.00
13.00	 0.00
14.00	 0.00
15.00	 0.00
16.00	 0.00
17.00	 0.00
18.00	 0.00
19.00	 0.00
20.00	 0.00
21.00	 0.00
22.00	 0.00
23.00	 0.00
24.00	 0.00
25.00	 0.00
26.00	 0.00
27.00	 0.00
28.00	 0.00
29.00	 0.00
30.00	 0.00
31.00	51.00
32.00	40.00
33.00	40.00
34.00	50.00
35.00	44.00
36.00	42.00
37.00	38.00
38.00	51.00
39.00	44.00
40.00	44.00
41.00	41.00
42.00	56.00
43.00	52.00
44.00	45.00
45.00	47.00
46.00	48.00
47.00	60.00
48.00	62.00
49.00	89.00
50.00	121.00
51.00	191.00
52.00	256.00
53.00	323.00
54.00	413.00
55.00	573.00
56.00	732.00
57.00	1042.00
58.00	1518.00
59.00	2116.00
60.00	2613.00
61.00	3206.00
62.00	3445.00
63.00	3501.00
64.00	3567.00
65.00	3442.00
66.00	3282.00
67.00	3171.00
68.00	3186.00
69.00	3018.00
70.00	2979.00
71.00	2892.00
72.00	2921.00
73.00	3017.00
74.00	2884.00
75.00	2873.00
76.00	2934.00
77.00	2897.00
78.00	2829.00
79.00	2848.00
80.00	2850.00
81.00	2842.00
82.00	2805.00
83.00	2965.00
84.00	3137.00
85.00	2997.00
86.00	3105.00
87.00	2980.00
88.00	3007.00
89.00	2846.00
90.00	2763.00
91.00	2643.00
92.00	2498.00
93.00	2628.00
94.00	2542.00
95.00	2474.00
96.00	2465.00
97.00	2455.00
98.00	2429.00
99.00	2445.00
100.00	2386.00
101.00	2357.00
102.00	2284.00
103.00	2241.00
104.00	2226.00
105.00	2302.00
106.00	2312.00
107.00	2236.00
108.00	2204.00
109.00	2074.00
110.00	2154.00
111.00	2138.00
112.00	2103.00
113.00	2061.00
114.00	2060.00
115.00	2009.00
116.00	2000.00
117.00	1918.00
118.00	1905.00
119.00	1992.00
120.00	1944.00
121.00	1840.00
122.00	1817.00
123.00	1883.00
124.00	1787.00
125.00	1781.00
126.00	1817.00
127.00	1717.00
128.00	1732.00
129.00	1662.00
130.00	1675.00
131.00	1716.00
132.00	1675.00
133.00	1553.00
134.00	1585.00
135.00	1539.00
136.00	1556.00
137.00	1595.00
138.00	1607.00
139.00	1668.00
140.00	1691.00
141.00	1822.00
142.00	1914.00
143.00	2013.00
144.00	2018.00
145.00	2018.00
146.00	2161.00
147.00	2224.00
148.00	2033.00
149.00	1956.00
150.00	1937.00
151.00	1816.00
152.00	1709.00
153.00	1794.00
154.00	1754.00
155.00	1657.00
156.00	1724.00
157.00	1563.00
158.00	1519.00
159.00	1386.00
160.00	1410.00
161.00	1498.00
162.00	1742.00
163.00	2040.00
164.00	2580.00
165.00	3333.00
166.00	4393.00
167.00	5506.00
168.00	6816.00
169.00	7657.00
170.00	8203.00
171.00	8464.00
172.00	7908.00
173.00	7078.00
174.00	6160.00
175.00	4937.00
176.00	3980.00
177.00	3219.00
178.00	2679.00
179.00	2401.00
180.00	2132.00
181.00	2174.00
182.00	2331.00
183.00	2397.00
184.00	2736.00
185.00	3369.00
186.00	4014.00
187.00	4825.00
188.00	5565.00
189.00	6446.00
190.00	7028.00
191.00	7046.00
192.00	6957.00
193.00	6360.00
194.00	5352.00
195.00	4439.00
196.00	3605.00
197.00	2821.00
198.00	2185.00
199.00	1729.00
200.00	1497.00
201.00	1277.00
202.00	1184.00
203.00	1176.00
204.00	1110.00
205.00	1058.00
206.00	1092.00
207.00	1073.00
208.00	1110.00
209.00	1061.00
210.00	1164.00
211.00	1095.00
212.00	1114.00
213.00	1100.00
214.00	1185.00
215.00	1245.00
216.00	1297.00
217.00	1437.00
218.00	1537.00
219.00	1728.00
220.00	1818.00
221.00	2060.00
222.00	2288.00
223.00	2419.00
224.00	2481.00
225.00	2546.00
226.00	2350.00
227.00	2289.00
228.00	2082.00
229.00	1837.00
230.00	1644.00
231.00	1397.00
232.00	1288.00
233.00	1124.00
234.00	1069.00
235.00	964.00
236.00	951.00
237.00	921.00
238.00	938.00
239.00	942.00
240.00	982.00
241.00	972.00
242.00	1031.00
243.00	1111.00
244.00	1146.00
245.00	1338.00
246.00	1635.00
247.00	2171.00
248.00	3136.00
249.00	4233.00
250.00	6042.00
251.00	8485.00
252.00	11040.00
253.00	14102.00
254.00	17122.00
255.00	19564.00
256.00	21264.00
257.00	21895.00
258.00	21486.00
259.00	19757.00
260.00	16887.00
261.00	13963.00
262.00	11084.00
263.00	8175.00
264.00	5871.00
265.00	4226.00
266.00	3011.00
267.00	2276.00
268.00	1934.00
269.00	1950.00
270.00	2010.00
271.00	2221.00
272.00	2458.00
273.00	2742.00
274.00	2969.00
275.00	3145.00
276.00	3198.00
277.00	3137.00
278.00	2846.00
279.00	2755.00
280.00	2706.00
281.00	2639.00
282.00	2558.00
283.00	2851.00
284.00	3207.00
285.00	3874.00
286.00	4470.00
287.00	5186.00
288.00	5554.00
289.00	6064.00
290.00	5973.00
291.00	5767.00
292.00	5286.00
293.00	4649.00
294.00	3841.00
295.00	3206.00
296.00	2582.00
297.00	2012.00
298.00	1595.00
299.00	1369.00
300.00	1220.00
301.00	1106.00
302.00	1005.00
303.00	1070.00
304.00	983.00
305.00	1072.00
306.00	1158.00
307.00	1241.00
308.00	1414.00
309.00	1493.00
310.00	1642.00
311.00	1856.00
312.00	2209.00
313.00	2611.00
314.00	3369.00
315.00	4271.00
316.00	5714.00
317.00	7827.00
318.00	10139.00
319.00	13217.00
320.00	16342.00
321.00	19671.00
322.00	23041.00
323.00	25080.00
324.00	26493.00
325.00	26675.00
326.00	25316.00
327.00	22942.00
328.00	19997.00
329.00	16291.00
330.00	12944.00
331.00	9810.00
332.00	7273.00
333.00	5089.00
334.00	3548.00
335.00	2614.00
336.00	2029.00
337.00	1749.00
338.00	1563.00
339.00	1598.00
340.00	1792.00
341.00	2086.00
342.00	2578.00
343.00	3152.00
344.00	3971.00
345.00	5262.00
346.00	7437.00
347.00	10516.00
348.00	15538.00
349.00	22993.00
350.00	34658.00
351.00	52108.00
352.00	76893.00
353.00	111697.00
354.00	155649.00
355.00	210899.00
356.00	274221.00
357.00	341081.00
358.00	406617.00
359.00	462255.00
360.00	503664.00
361.00	521076.00
362.00	516330.00
363.00	488319.00
364.00	441238.00
365.00	380162.00
366.00	310863.00
367.00	244398.00
368.00	183223.00
369.00	131725.00
370.00	90140.00
371.00	59457.00
372.00	37982.00
373.00	23409.00
374.00	14400.00
375.00	9380.00
376.00	6486.00
377.00	5211.00
378.00	4910.00
379.00	5233.00
380.00	6148.00
381.00	7893.00
382.00	10233.00
383.00	13926.00
384.00	18954.00
385.00	24920.00
386.00	32425.00
387.00	41685.00
388.00	50479.00
389.00	59279.00
390.00	68300.00
391.00	75359.00
392.00	78613.00
393.00	80097.00
394.00	76676.00
395.00	71411.00
396.00	63746.00
397.00	54206.00
398.00	43787.00
399.00	34798.00
400.00	26086.00
401.00	18815.00
402.00	13055.00
403.00	8955.00
404.00	5875.00
405.00	3956.00
406.00	2603.00
407.00	1772.00
408.00	1277.00
409.00	981.00
410.00	802.00
411.00	786.00
412.00	734.00
413.00	717.00
414.00	713.00
415.00	675.00
416.00	701.00
417.00	691.00
418.00	727.00
419.00	719.00
420.00	772.00
421.00	753.00
422.00	791.00
423.00	817.00
424.00	846.00
425.00	914.00
426.00	1010.00
427.00	1087.00
428.00	1366.00
429.00	1740.00
430.00	2086.00
431.00	2757.00
432.00	3581.00
433.00	4776.00
434.00	5807.00
435.00	7252.00
436.00	8924.00
437.00	10494.00
438.00	11816.00
439.00	12962.00
440.00	13687.00
441.00	13944.00
442.00	13814.00
443.00	12845.00
444.00	11887.00
445.00	10397.00
446.00	8814.00
447.00	7402.00
448.00	6104.00
449.00	5067.00
450.00	4072.00
451.00	3477.00
452.00	3145.00
453.00	2857.00
454.00	2640.00
455.00	2447.00
456.00	2431.00
457.00	2245.00
458.00	2099.00
459.00	1891.00
460.00	1809.00
461.00	1634.00
462.00	1626.00
463.00	1533.00
464.00	1490.00
465.00	1510.00
466.00	1592.00
467.00	1623.00
468.00	1642.00
469.00	1841.00
470.00	1952.00
471.00	2012.00
472.00	2248.00
473.00	2493.00
474.00	2612.00
475.00	2841.00
476.00	3080.00
477.00	3257.00
478.00	3583.00
479.00	3724.00
480.00	3981.00
481.00	4060.00
482.00	4187.00
483.00	4054.00
484.00	3867.00
485.00	3738.00
486.00	3456.00
487.00	3230.00
488.00	2806.00
489.00	2624.00
490.00	2385.00
491.00	2134.00
492.00	1847.00
493.00	1679.00
494.00	1632.00
495.00	1493.00
496.00	1431.00
497.00	1496.00
498.00	1419.00
499.00	1435.00
500.00	1491.00
501.00	1582.00
502.00	1562.00
503.00	1596.00
504.00	1679.00
505.00	1756.00
506.00	1794.00
507.00	1916.00
508.00	1911.00
509.00	2005.00
510.00	2070.00
511.00	2136.00
512.00	2249.00
513.00	2304.00
514.00	2366.00
515.00	2593.00
516.00	2572.00
517.00	2830.00
518.00	2911.00
519.00	3151.00
520.00	3351.00
521.00	3588.00
522.00	3808.00
523.00	4113.00
524.00	4504.00
525.00	4698.00
526.00	5076.00
527.00	5284.00
528.00	5340.00
529.00	5263.00
530.00	5229.00
531.00	5056.00
532.00	4861.00
533.00	4649.00
534.00	4281.00
535.00	3914.00
536.00	3579.00
537.00	3197.00
538.00	3125.00
539.00	2877.00
540.00	2803.00
541.00	2685.00
542.00	2699.00
543.00	2619.00
544.00	2618.00
545.00	2648.00
546.00	2781.00
547.00	2724.00
548.00	2773.00
549.00	2828.00
550.00	2811.00
551.00	2895.00
552.00	2919.00
553.00	3030.00
554.00	2945.00
555.00	3060.00
556.00	2954.00
557.00	3090.00
558.00	3192.00
559.00	3227.00
560.00	3195.00
561.00	3363.00
562.00	3397.00
563.00	3487.00
564.00	3723.00
565.00	4019.00
566.00	4255.00
567.00	4421.00
568.00	4908.00
569.00	5470.00
570.00	5835.00
571.00	6191.00
572.00	6847.00
573.00	7228.00
574.00	7575.00
575.00	7875.00
576.00	7920.00
577.00	7920.00
578.00	7701.00
579.00	7336.00
580.00	7000.00
581.00	6388.00
582.00	5779.00
583.00	5356.00
584.00	4825.00
585.00	4333.00
586.00	3873.00
587.00	3683.00
588.00	3465.00
589.00	3193.00
590.00	3222.00
591.00	3074.00
592.00	3187.00
593.00	3127.00
594.00	3170.00
595.00	3257.00
596.00	3296.00
597.00	3336.00
598.00	3480.00
599.00	3604.00
600.00	3836.00
601.00	3842.00
602.00	4164.00
603.00	4427.00
604.00	4840.00
605.00	5376.00
606.00	6172.00
607.00	7472.00
608.00	9326.00
609.00	12089.00
610.00	16621.00
611.00	22618.00
612.00	31306.00
613.00	43136.00
614.00	59102.00
615.00	78704.00
616.00	104002.00
617.00	133087.00
618.00	165949.00
619.00	202204.00
620.00	239150.00
621.00	274732.00
622.00	305859.00
623.00	331160.00
624.00	349327.00
625.00	357268.00
626.00	354144.00
627.00	339416.00
628.00	316970.00
629.00	287550.00
630.00	253191.00
631.00	217739.00
632.00	180212.00
633.00	146218.00
634.00	114987.00
635.00	88018.00
636.00	66602.00
637.00	48621.00
638.00	35776.00
639.00	25956.00
640.00	18930.00
641.00	14051.00
642.00	10643.00
643.00	8424.00
644.00	7117.00
645.00	6286.00
646.00	5854.00
647.00	5465.00
648.00	5346.00
649.00	5205.00
650.00	5358.00
651.00	5277.00
652.00	5267.00
653.00	5347.00
654.00	5224.00
655.00	5320.00
656.00	5339.00
657.00	5429.00
658.00	5599.00
659.00	5584.00
660.00	5688.00
661.00	5704.00
662.00	6109.00
663.00	5987.00
664.00	6090.00
665.00	6164.00
666.00	6379.00
667.00	6546.00
668.00	6807.00
669.00	7062.00
670.00	7557.00
671.00	7892.00
672.00	8487.00
673.00	9310.00
674.00	10360.00
675.00	11533.00
676.00	13269.00
677.00	15369.00
678.00	18265.00
679.00	21654.00
680.00	25815.00
681.00	30205.00
682.00	35752.00
683.00	41140.00
684.00	46094.00
685.00	51125.00
686.00	55427.00
687.00	58564.00
688.00	61229.00
689.00	61307.00
690.00	60582.00
691.00	58757.00
692.00	55660.00
693.00	51040.00
694.00	45622.00
695.00	40329.00
696.00	35073.00
697.00	29567.00
698.00	24880.00
699.00	20605.00
700.00	17106.00
701.00	14483.00
702.00	12113.00
703.00	10271.00
704.00	9011.00
705.00	8059.00
706.00	7603.00
707.00	7101.00
708.00	7177.00
709.00	6817.00
710.00	7005.00
711.00	6892.00
712.00	7033.00
713.00	6958.00
714.00	7285.00
715.00	7685.00
716.00	7660.00
717.00	7992.00
718.00	8113.00
719.00	8303.00
720.00	8423.00
721.00	8879.00
722.00	9057.00
723.00	9263.00
724.00	9505.00
725.00	9846.00
726.00	10094.00
727.00	9969.00
728.00	10160.00
729.00	10114.00
730.00	10282.00
731.00	10126.00
732.00	9983.00
733.00	9631.00
734.00	9479.00
735.00	9059.00
736.00	8807.00
737.00	8571.00
738.00	8314.00
739.00	8267.00
740.00	7850.00
741.00	7817.00
742.00	7833.00
743.00	7614.00
744.00	7320.00
745.00	7374.00
746.00	7491.00
747.00	7507.00
748.00	7384.00
749.00	7304.00
750.00	7526.00
751.00	7459.00
752.00	7444.00
753.00	7562.00
754.00	7449.00
755.00	7487.00
756.00	7585.00
757.00	7604.00
758.00	7485.00
759.00	7557.00
760.00	7523.00
761.00	7679.00
762.00	7721.00
763.00	7822.00
764.00	7856.00
765.00	7985.00
766.00	7864.00
767.00	8188.00
768.00	8161.00
769.00	8343.00
770.00	8604.00
771.00	8643.00
772.00	8972.00
773.00	9011.00
774.00	9256.00
775.00	9411.00
776.00	9739.00
777.00	10128.00
778.00	10465.00
779.00	10975.00
780.00	10942.00
781.00	11628.00
782.00	11932.00
783.00	12197.00
784.00	12573.00
785.00	13168.00
786.00	13346.00
787.00	13722.00
788.00	14191.00
789.00	14450.00
790.00	14538.00
791.00	14904.00
792.00	15180.00
793.00	15165.00
794.00	15517.00
795.00	15910.00
796.00	15929.00
797.00	15953.00
798.00	16479.00
799.00	16213.00
800.00	16240.00
801.00	16393.00
802.00	16562.00
803.00	16685.00
804.00	16915.00
805.00	17364.00
806.00	17867.00
807.00	18279.00
808.00	18763.00
809.00	19533.00
810.00	20527.00
811.00	21788.00
812.00	22987.00
813.00	23979.00
814.00	25297.00
815.00	26606.00
816.00	27850.00
817.00	27974.00
818.00	29012.00
819.00	29164.00
820.00	28867.00
821.00	28570.00
822.00	28042.00
823.00	26881.00
824.00	25728.00
825.00	24206.00
826.00	22784.00
827.00	21005.00
828.00	19655.00
829.00	18388.00
830.00	17008.00
831.00	16305.00
832.00	15641.00
833.00	15032.00
834.00	14736.00
835.00	14312.00
836.00	14552.00
837.00	14262.00
838.00	14279.00
839.00	14342.00
840.00	14153.00
841.00	14309.00
842.00	14211.00
843.00	14414.00
844.00	14306.00
845.00	14423.00
846.00	14241.00
847.00	14199.00
848.00	14159.00
849.00	14020.00
850.00	13703.00
851.00	13570.00
852.00	13621.00
853.00	13453.00
854.00	13588.00
855.00	13470.00
856.00	13487.00
857.00	13179.00
858.00	13626.00
859.00	13451.00
860.00	13511.00
861.00	13195.00
862.00	13315.00
863.00	13479.00
864.00	13381.00
865.00	13448.00
866.00	13397.00
867.00	13602.00
868.00	13567.00
869.00	13502.00
870.00	13568.00
871.00	13830.00
872.00	13685.00
873.00	13754.00
874.00	13803.00
875.00	13887.00
876.00	13766.00
877.00	13798.00
878.00	14220.00
879.00	14163.00
880.00	14092.00
881.00	14125.00
882.00	14409.00
883.00	14444.00
884.00	14587.00
885.00	14613.00
886.00	14887.00
887.00	14873.00
888.00	15088.00
889.00	15306.00
890.00	15620.00
891.00	15620.00
892.00	16000.00
893.00	15976.00
894.00	16133.00
895.00	16280.00
896.00	16610.00
897.00	17221.00
898.00	17158.00
899.00	17410.00
900.00	17550.00
901.00	17975.00
902.00	18047.00
903.00	18384.00
904.00	18597.00
905.00	18635.00
906.00	18795.00
907.00	18901.00
908.00	19041.00
909.00	19213.00
910.00	19634.00
911.00	19604.00
912.00	19912.00
913.00	20022.00
914.00	20082.00
915.00	20097.00
916.00	20371.00
917.00	20330.00
918.00	20307.00
919.00	20777.00
920.00	20560.00
921.00	20800.00
922.00	21005.00
923.00	20812.00
924.00	21089.00
925.00	21132.00
926.00	21418.00
927.00	21433.00
928.00	21815.00
929.00	22197.00
930.00	22506.00
931.00	22490.00
932.00	22935.00
933.00	23174.00
934.00	23791.00
935.00	24490.00
936.00	24552.00
937.00	25350.00
938.00	26009.00
939.00	26402.00
940.00	27108.00
941.00	27155.00
942.00	27302.00
943.00	27564.00
944.00	27354.00
945.00	27548.00
946.00	26766.00
947.00	26669.00
948.00	26144.00
949.00	25449.00
950.00	24815.00
951.00	23784.00
952.00	24011.00
953.00	23000.00
954.00	22446.00
955.00	22146.00
956.00	21795.00
957.00	20983.00
958.00	20951.00
959.00	21065.00
960.00	20846.00
961.00	20544.00
962.00	20715.00
963.00	20745.00
964.00	20795.00
965.00	20834.00
966.00	20970.00
967.00	21123.00
968.00	21034.00
969.00	21139.00
970.00	21137.00
971.00	20998.00
972.00	21121.00
973.00	21030.00
974.00	21030.00
975.00	20623.00
976.00	20700.00
977.00	20447.00
978.00	20333.00
979.00	20210.00
980.00	19778.00
981.00	19515.00
982.00	19250.00
983.00	18910.00
984.00	18882.00
985.00	18681.00
986.00	18206.00
987.00	18427.00
988.00	18286.00
989.00	18510.00
990.00	18477.00
991.00	18508.00
992.00	18368.00
993.00	18139.00
994.00	18100.00
995.00	17984.00
996.00	17969.00
997.00	18176.00
998.00	18035.00
999.00	17938.00
1000.00	18065.00
1001.00	17879.00
1002.00	17948.00
1003.00	18019.00
1004.00	18055.00
1005.00	18202.00
1006.00	17657.00
1007.00	17944.00
1008.00	17961.00
1009.00	17924.00
1010.00	18131.00
1011.00	18225.00
1012.00	17925.00
1013.00	18240.00
1014.00	18071.00
1015.00	17925.00
1016.00	18072.00
1017.00	18249.00
1018.00	18195.00
1019.00	18400.00
1020.00	18517.00
1021.00	18512.00
1022.00	18727.00
1023.00	18817.00
1024.00	18663.00
1025.00	18784.00
1026.00	18763.00
1027.00	18964.00
1028.00	18793.00
1029.00	19112.00
1030.00	18712.00
1031.00	18879.00
1032.00	18881.00
1033.00	18862.00
1034.00	18790.00
1035.00	19056.00
1036.00	18798.00
1037.00	18823.00
1038.00	18680.00
1039.00	18800.00
1040.00	18668.00
1041.00	18921.00
1042.00	18737.00
1043.00	19128.00
1044.00	19100.00
1045.00	19126.00
1046.00	19453.00
1047.00	19196.00
1048.00	19637.00
1049.00	19129.00
1050.00	19811.00
1051.00	19439.00
1052.00	19415.00
1053.00	19504.00
1054.00	19825.00
1055.00	19704.00
1056.00	19825.00
1057.00	19828.00
1058.00	19733.00
1059.00	19813.00
1060.00	20153.00
1061.00	20324.00
1062.00	20225.00
1063.00	19896.00
1064.00	20240.00
1065.00	20129.00
1066.00	20315.00
1067.00	20621.00
1068.00	20356.00
1069.00	20284.00
1070.00	20606.00
1071.00	20348.00
1072.00	20368.00
1073.00	20436.00
1074.00	20258.00
1075.00	20282.00
1076.00	20356.00
1077.00	20189.00
1078.00	20597.00
1079.00	20557.00
1080.00	20374.00
1081.00	20671.00
1082.00	20657.00
1083.00	20619.00
1084.00	20707.00
1085.00	20870.00
1086.00	20757.00
1087.00	20789.00
1088.00	20735.00
1089.00	20860.00
1090.00	20814.00
1091.00	21288.00
1092.00	21002.00
1093.00	21609.00
1094.00	21452.00
1095.00	21641.00
1096.00	21862.00
1097.00	21991.00
1098.00	21844.00
1099.00	21985.00
1100.00	22276.00
1101.00	22185.00
1102.00	22092.00
1103.00	22465.00
1104.00	22177.00
1105.00	21929.00
1106.00	21914.00
1107.00	21879.00
1108.00	21773.00
1109.00	21605.00
1110.00	21769.00
1111.00	21763.00
1112.00	21569.00
1113.00	21707.00
1114.00	21194.00
1115.00	21512.00
1116.00	21271.00
1117.00	21468.00
1118.00	21528.00
1119.00	21227.00
1120.00	21312.00
1121.00	21593.00
1122.00	21651.00
1123.00	21449.00
1124.00	21505.00
1125.00	21477.00
1126.00	21494.00
1127.00	21403.00
1128.00	21680.00
1129.00	21873.00
1130.00	21761.00
1131.00	21666.00
1132.00	21682.00
1133.00	21558.00
1134.00	21310.00
1135.00	21702.00
1136.00	21810.00
1137.00	21722.00
1138.00	22014.00
1139.00	21796.00
1140.00	21645.00
1141.00	21617.00
1142.00	21907.00
1143.00	21881.00
1144.00	21960.00
1145.00	22010.00
1146.00	22096.00
1147.00	22018.00
1148.00	22493.00
1149.00	22814.00
1150.00	22883.00
1151.00	23163.00
1152.00	23463.00
1153.00	23907.00
1154.00	24219.00
1155.00	24210.00
1156.00	24725.00
1157.00	25089.00
1158.00	25312.00
1159.00	25815.00
1160.00	25886.00
1161.00	25711.00
1162.00	26034.00
1163.00	26029.00
1164.00	25598.00
1165.00	25477.00
1166.00	25342.00
1167.00	25281.00
1168.00	24844.00
1169.00	24319.00
1170.00	23962.00
1171.00	23377.00
1172.00	23519.00
1173.00	22937.00
1174.00	22821.00
1175.00	22485.00
1176.00	22334.00
1177.00	22219.00
1178.00	21902.00
1179.00	21933.00
1180.00	21798.00
1181.00	21727.00
1182.00	21884.00
1183.00	21536.00
1184.00	21597.00
1185.00	21663.00
1186.00	21664.00
1187.00	21556.00
1188.00	21785.00
1189.00	21815.00
1190.00	21558.00
1191.00	21816.00
1192.00	21710.00
1193.00	21733.00
1194.00	21752.00
1195.00	21850.00
1196.00	21843.00
1197.00	21879.00
1198.00	21881.00
1199.00	21858.00
1200.00	21800.00
1201.00	22028.00
1202.00	22020.00
1203.00	22308.00
1204.00	22309.00
1205.00	22195.00
1206.00	22377.00
1207.00	22400.00
1208.00	22564.00
1209.00	22285.00
1210.00	21974.00
1211.00	22551.00
1212.00	22443.00
1213.00	22394.00
1214.00	22114.00
1215.00	23010.00
1216.00	22196.00
1217.00	22794.00
1218.00	22419.00
1219.00	22727.00
1220.00	22638.00
1221.00	22723.00
1222.00	22654.00
1223.00	22939.00
1224.00	22784.00
1225.00	22944.00
1226.00	23071.00
1227.00	22958.00
1228.00	22962.00
1229.00	23056.00
1230.00	22771.00
1231.00	22739.00
1232.00	22955.00
1233.00	23018.00
1234.00	22988.00
1235.00	22960.00
1236.00	22961.00
1237.00	22959.00
1238.00	22959.00
1239.00	23245.00
1240.00	23149.00
1241.00	23037.00
1242.00	23208.00
1243.00	23357.00
1244.00	22942.00
1245.00	23228.00
1246.00	23326.00
1247.00	23023.00
