Date:	31/01/2022		
Time:	16:25		
Sample name:	JC36_74_3		
Position:	196.000018	mm	
Sample surface:	7.657784	cm	
Tube anode:	Mo		
Tube voltage:	30	kV	
Tube current:	30	mA	
Comments	not in position		
Gain	2.150000		
peaking_time	0.300000	m-sec	
trigger_threshold	40.000000	V	
mca_bin_width	2.000000	no:	
number_mca_channels	2048.000000	no:	
gap_time	0.100000	m-sec	
trigger_peaking_time	0.050000	m-sec	
livetime	12.411285	seconds	
runtime	15.000179	seconds	
input_count_rate	92530.384942	cps	
output_count_rate	76560.483826	cps	
triggers	1336303.000000	seconds	
events_in_run	1104843.000000	seconds	
channel	content		
 1.00	 0.00
 2.00	 0.00
 3.00	 0.00
 4.00	 0.00
 5.00	 0.00
 6.00	 0.00
 7.00	 0.00
 8.00	 0.00
 9.00	 0.00
10.00	 0.00
11.00	 0.00
12.00	 0.00
13.00	 0.00
14.00	 0.00
15.00	 0.00
16.00	 0.00
17.00	 0.00
18.00	 0.00
19.00	 0.00
20.00	 0.00
21.00	 0.00
22.00	 0.00
23.00	 0.00
24.00	 0.00
25.00	 0.00
26.00	 0.00
27.00	 0.00
28.00	 0.00
29.00	 0.00
30.00	 0.00
31.00	32.00
32.00	43.00
33.00	43.00
34.00	31.00
35.00	46.00
36.00	51.00
37.00	47.00
38.00	41.00
39.00	40.00
40.00	40.00
41.00	41.00
42.00	40.00
43.00	33.00
44.00	52.00
45.00	58.00
46.00	48.00
47.00	64.00
48.00	66.00
49.00	91.00
50.00	128.00
51.00	185.00
52.00	240.00
53.00	334.00
54.00	435.00
55.00	543.00
56.00	739.00
57.00	1097.00
58.00	1513.00
59.00	2057.00
60.00	2632.00
61.00	3159.00
62.00	3408.00
63.00	3605.00
64.00	3562.00
65.00	3505.00
66.00	3303.00
67.00	3139.00
68.00	3140.00
69.00	3043.00
70.00	3093.00
71.00	2966.00
72.00	2907.00
73.00	2912.00
74.00	2889.00
75.00	2864.00
76.00	2924.00
77.00	2881.00
78.00	2827.00
79.00	2903.00
80.00	3055.00
81.00	2894.00
82.00	2985.00
83.00	3079.00
84.00	3061.00
85.00	3098.00
86.00	3124.00
87.00	3063.00
88.00	2951.00
89.00	2833.00
90.00	2793.00
91.00	2624.00
92.00	2679.00
93.00	2577.00
94.00	2611.00
95.00	2504.00
96.00	2489.00
97.00	2468.00
98.00	2452.00
99.00	2346.00
100.00	2384.00
101.00	2419.00
102.00	2374.00
103.00	2307.00
104.00	2291.00
105.00	2220.00
106.00	2239.00
107.00	2238.00
108.00	2190.00
109.00	2168.00
110.00	2049.00
111.00	2053.00
112.00	2054.00
113.00	2061.00
114.00	1990.00
115.00	2019.00
116.00	2038.00
117.00	2042.00
118.00	1961.00
119.00	1897.00
120.00	1904.00
121.00	1938.00
122.00	1863.00
123.00	1882.00
124.00	1763.00
125.00	1725.00
126.00	1721.00
127.00	1792.00
128.00	1677.00
129.00	1622.00
130.00	1669.00
131.00	1650.00
132.00	1689.00
133.00	1575.00
134.00	1533.00
135.00	1577.00
136.00	1616.00
137.00	1610.00
138.00	1621.00
139.00	1687.00
140.00	1711.00
141.00	1732.00
142.00	1835.00
143.00	1998.00
144.00	2222.00
145.00	2093.00
146.00	2105.00
147.00	2097.00
148.00	2016.00
149.00	1934.00
150.00	1906.00
151.00	1776.00
152.00	1777.00
153.00	1683.00
154.00	1682.00
155.00	1662.00
156.00	1672.00
157.00	1534.00
158.00	1426.00
159.00	1511.00
160.00	1447.00
161.00	1458.00
162.00	1690.00
163.00	2051.00
164.00	2499.00
165.00	3468.00
166.00	4259.00
167.00	5501.00
168.00	6814.00
169.00	7459.00
170.00	8195.00
171.00	8480.00
172.00	8001.00
173.00	7226.00
174.00	5944.00
175.00	4947.00
176.00	3943.00
177.00	3209.00
178.00	2596.00
179.00	2301.00
180.00	2248.00
181.00	2122.00
182.00	2332.00
183.00	2474.00
184.00	2825.00
185.00	3399.00
186.00	3999.00
187.00	4800.00
188.00	5586.00
189.00	6489.00
190.00	6888.00
191.00	7109.00
192.00	6904.00
193.00	6261.00
194.00	5519.00
195.00	4531.00
196.00	3586.00
197.00	2838.00
198.00	2193.00
199.00	1704.00
200.00	1384.00
201.00	1366.00
202.00	1228.00
203.00	1146.00
204.00	1079.00
205.00	1098.00
206.00	1052.00
207.00	1100.00
208.00	1047.00
209.00	1029.00
210.00	1082.00
211.00	1100.00
212.00	1105.00
213.00	1157.00
214.00	1170.00
215.00	1149.00
216.00	1259.00
217.00	1369.00
218.00	1524.00
219.00	1689.00
220.00	1895.00
221.00	2070.00
222.00	2196.00
223.00	2299.00
224.00	2406.00
225.00	2426.00
226.00	2329.00
227.00	2202.00
228.00	1977.00
229.00	1864.00
230.00	1645.00
231.00	1434.00
232.00	1261.00
233.00	1150.00
234.00	1099.00
235.00	943.00
236.00	1029.00
237.00	925.00
238.00	969.00
239.00	912.00
240.00	920.00
241.00	1079.00
242.00	977.00
243.00	1012.00
244.00	1204.00
245.00	1287.00
246.00	1665.00
247.00	2181.00
248.00	2965.00
249.00	4302.00
250.00	6033.00
251.00	8135.00
252.00	10926.00
253.00	13756.00
254.00	17102.00
255.00	19645.00
256.00	21077.00
257.00	21599.00
258.00	21214.00
259.00	19315.00
260.00	16890.00
261.00	13806.00
262.00	10914.00
263.00	8042.00
264.00	5787.00
265.00	4151.00
266.00	3026.00
267.00	2307.00
268.00	1966.00
269.00	1914.00
270.00	1995.00
271.00	2216.00
272.00	2424.00
273.00	2673.00
274.00	2912.00
275.00	3118.00
276.00	3169.00
277.00	3026.00
278.00	3126.00
279.00	2889.00
280.00	2638.00
281.00	2692.00
282.00	2624.00
283.00	2964.00
284.00	3243.00
285.00	3904.00
286.00	4448.00
287.00	5066.00
288.00	5511.00
289.00	5910.00
290.00	6017.00
291.00	5812.00
292.00	5428.00
293.00	4777.00
294.00	4089.00
295.00	3231.00
296.00	2677.00
297.00	2082.00
298.00	1694.00
299.00	1368.00
300.00	1185.00
301.00	1078.00
302.00	985.00
303.00	1051.00
304.00	1066.00
305.00	1045.00
306.00	1139.00
307.00	1281.00
308.00	1363.00
309.00	1567.00
310.00	1692.00
311.00	1936.00
312.00	2227.00
313.00	2682.00
314.00	3353.00
315.00	4305.00
316.00	5737.00
317.00	7667.00
318.00	10226.00
319.00	13351.00
320.00	16622.00
321.00	20020.00
322.00	23132.00
323.00	25014.00
324.00	26808.00
325.00	26832.00
326.00	25453.00
327.00	22923.00
328.00	19844.00
329.00	16525.00
330.00	13020.00
331.00	9716.00
332.00	7249.00
333.00	5149.00
334.00	3590.00
335.00	2648.00
336.00	2000.00
337.00	1751.00
338.00	1620.00
339.00	1582.00
340.00	1791.00
341.00	2076.00
342.00	2496.00
343.00	3086.00
344.00	4041.00
345.00	5383.00
346.00	7529.00
347.00	10676.00
348.00	15386.00
349.00	23147.00
350.00	34729.00
351.00	52190.00
352.00	77451.00
353.00	111666.00
354.00	155554.00
355.00	211627.00
356.00	274541.00
357.00	340775.00
358.00	407333.00
359.00	464271.00
360.00	505486.00
361.00	522928.00
362.00	518605.00
363.00	490846.00
364.00	443629.00
365.00	380414.00
366.00	311687.00
367.00	244600.00
368.00	183746.00
369.00	131214.00
370.00	90381.00
371.00	59963.00
372.00	38021.00
373.00	23695.00
374.00	14672.00
375.00	9265.00
376.00	6660.00
377.00	5241.00
378.00	4839.00
379.00	5334.00
380.00	6233.00
381.00	7856.00
382.00	10443.00
383.00	13849.00
384.00	19072.00
385.00	24954.00
386.00	32732.00
387.00	41320.00
388.00	50530.00
389.00	60327.00
390.00	68584.00
391.00	75177.00
392.00	79739.00
393.00	79662.00
394.00	77308.00
395.00	71545.00
396.00	63672.00
397.00	54413.00
398.00	44260.00
399.00	34670.00
400.00	26161.00
401.00	19118.00
402.00	13222.00
403.00	8979.00
404.00	5983.00
405.00	3914.00
406.00	2535.00
407.00	1703.00
408.00	1239.00
409.00	970.00
410.00	836.00
411.00	725.00
412.00	734.00
413.00	720.00
414.00	681.00
415.00	701.00
416.00	706.00
417.00	708.00
418.00	714.00
419.00	688.00
420.00	785.00
421.00	767.00
422.00	766.00
423.00	818.00
424.00	843.00
425.00	872.00
426.00	1004.00
427.00	1145.00
428.00	1410.00
429.00	1648.00
430.00	2071.00
431.00	2827.00
432.00	3556.00
433.00	4670.00
434.00	5907.00
435.00	7401.00
436.00	8803.00
437.00	10435.00
438.00	11886.00
439.00	13060.00
440.00	13702.00
441.00	13771.00
442.00	13544.00
443.00	13007.00
444.00	11657.00
445.00	10373.00
446.00	8860.00
447.00	7586.00
448.00	6237.00
449.00	5101.00
450.00	4224.00
451.00	3593.00
452.00	3180.00
453.00	2860.00
454.00	2705.00
455.00	2458.00
456.00	2433.00
457.00	2309.00
458.00	2097.00
459.00	2006.00
460.00	1802.00
461.00	1745.00
462.00	1576.00
463.00	1577.00
464.00	1470.00
465.00	1465.00
466.00	1533.00
467.00	1624.00
468.00	1727.00
469.00	1764.00
470.00	1959.00
471.00	2137.00
472.00	2266.00
473.00	2373.00
474.00	2677.00
475.00	2735.00
476.00	3090.00
477.00	3307.00
478.00	3460.00
479.00	3763.00
480.00	3971.00
481.00	4128.00
482.00	4107.00
483.00	4072.00
484.00	3979.00
485.00	3723.00
486.00	3475.00
487.00	3095.00
488.00	2912.00
489.00	2579.00
490.00	2335.00
491.00	2041.00
492.00	1841.00
493.00	1586.00
494.00	1594.00
495.00	1501.00
496.00	1496.00
497.00	1449.00
498.00	1471.00
499.00	1442.00
500.00	1479.00
501.00	1556.00
502.00	1565.00
503.00	1680.00
504.00	1694.00
505.00	1716.00
506.00	1744.00
507.00	1839.00
508.00	1901.00
509.00	2008.00
510.00	1976.00
511.00	2094.00
512.00	2166.00
513.00	2314.00
514.00	2475.00
515.00	2636.00
516.00	2598.00
517.00	2639.00
518.00	2928.00
519.00	3101.00
520.00	3286.00
521.00	3507.00
522.00	3678.00
523.00	4146.00
524.00	4367.00
525.00	4808.00
526.00	5044.00
527.00	5247.00
528.00	5343.00
529.00	5438.00
530.00	5331.00
531.00	5092.00
532.00	4762.00
533.00	4516.00
534.00	4226.00
535.00	3879.00
536.00	3478.00
537.00	3304.00
538.00	3035.00
539.00	3017.00
540.00	2840.00
541.00	2763.00
542.00	2619.00
543.00	2670.00
544.00	2711.00
545.00	2673.00
546.00	2710.00
547.00	2725.00
548.00	2744.00
549.00	2850.00
550.00	2801.00
551.00	2907.00
552.00	2938.00
553.00	2996.00
554.00	2966.00
555.00	3029.00
556.00	3066.00
557.00	3135.00
558.00	3222.00
559.00	3152.00
560.00	3363.00
561.00	3353.00
562.00	3451.00
563.00	3492.00
564.00	3712.00
565.00	3921.00
566.00	4195.00
567.00	4445.00
568.00	5023.00
569.00	5224.00
570.00	5755.00
571.00	6349.00
572.00	6859.00
573.00	7152.00
574.00	7590.00
575.00	7846.00
576.00	7903.00
577.00	7847.00
578.00	7552.00
579.00	7315.00
580.00	6782.00
581.00	6368.00
582.00	5815.00
583.00	5256.00
584.00	4774.00
585.00	4383.00
586.00	4007.00
587.00	3651.00
588.00	3491.00
589.00	3147.00
590.00	3221.00
591.00	3197.00
592.00	3097.00
593.00	3030.00
594.00	3098.00
595.00	3187.00
596.00	3303.00
597.00	3376.00
598.00	3462.00
599.00	3629.00
600.00	3731.00
601.00	3787.00
602.00	4195.00
603.00	4396.00
604.00	4819.00
605.00	5361.00
606.00	6356.00
607.00	7343.00
608.00	9420.00
609.00	12162.00
610.00	16589.00
611.00	22780.00
612.00	31688.00
613.00	43443.00
614.00	59127.00
615.00	79225.00
616.00	104183.00
617.00	132745.00
618.00	166052.00
619.00	201993.00
620.00	239056.00
621.00	274452.00
622.00	305909.00
623.00	331899.00
624.00	349108.00
625.00	356148.00
626.00	353071.00
627.00	338870.00
628.00	317984.00
629.00	288011.00
630.00	253079.00
631.00	217457.00
632.00	180469.00
633.00	145993.00
634.00	115087.00
635.00	88002.00
636.00	66476.00
637.00	48763.00
638.00	35850.00
639.00	25819.00
640.00	18890.00
641.00	14036.00
642.00	10765.00
643.00	8559.00
644.00	7250.00
645.00	6366.00
646.00	5892.00
647.00	5409.00
648.00	5317.00
649.00	5185.00
650.00	5233.00
651.00	5189.00
652.00	5299.00
653.00	5216.00
654.00	5271.00
655.00	5444.00
656.00	5469.00
657.00	5408.00
658.00	5487.00
659.00	5568.00
660.00	5664.00
661.00	5707.00
662.00	5943.00
663.00	6053.00
664.00	6226.00
665.00	6299.00
666.00	6417.00
667.00	6636.00
668.00	6798.00
669.00	7112.00
670.00	7342.00
671.00	7964.00
672.00	8357.00
673.00	9077.00
674.00	10151.00
675.00	11403.00
676.00	13181.00
677.00	15740.00
678.00	18202.00
679.00	21749.00
680.00	25411.00
681.00	30212.00
682.00	35357.00
683.00	40419.00
684.00	45961.00
685.00	51240.00
686.00	54822.00
687.00	58397.00
688.00	61050.00
689.00	61779.00
690.00	60728.00
691.00	58578.00
692.00	55208.00
693.00	50808.00
694.00	45918.00
695.00	40261.00
696.00	34748.00
697.00	29643.00
698.00	24805.00
699.00	20591.00
700.00	16922.00
701.00	13991.00
702.00	12093.00
703.00	10257.00
704.00	9040.00
705.00	8040.00
706.00	7520.00
707.00	7003.00
708.00	6903.00
709.00	6849.00
710.00	6970.00
711.00	7065.00
712.00	7181.00
713.00	7096.00
714.00	7322.00
715.00	7503.00
716.00	7524.00
717.00	7916.00
718.00	8164.00
719.00	8448.00
720.00	8605.00
721.00	8792.00
722.00	9087.00
723.00	9206.00
724.00	9393.00
725.00	9815.00
726.00	10061.00
727.00	10171.00
728.00	10272.00
729.00	10195.00
730.00	10152.00
731.00	10098.00
732.00	9897.00
733.00	9687.00
734.00	9380.00
735.00	9082.00
736.00	8826.00
737.00	8718.00
738.00	8536.00
739.00	8199.00
740.00	7906.00
741.00	8014.00
742.00	7763.00
743.00	7528.00
744.00	7465.00
745.00	7590.00
746.00	7513.00
747.00	7350.00
748.00	7230.00
749.00	7419.00
750.00	7516.00
751.00	7346.00
752.00	7478.00
753.00	7360.00
754.00	7468.00
755.00	7453.00
756.00	7440.00
757.00	7481.00
758.00	7575.00
759.00	7702.00
760.00	7516.00
761.00	7578.00
762.00	7778.00
763.00	7842.00
764.00	7617.00
765.00	7853.00
766.00	7998.00
767.00	8033.00
768.00	8123.00
769.00	8289.00
770.00	8486.00
771.00	8561.00
772.00	8863.00
773.00	8948.00
774.00	9304.00
775.00	9444.00
776.00	9875.00
777.00	10049.00
778.00	10433.00
779.00	10632.00
780.00	11160.00
781.00	11445.00
782.00	11753.00
783.00	12132.00
784.00	12778.00
785.00	13114.00
786.00	13480.00
787.00	13844.00
788.00	14145.00
789.00	14381.00
790.00	14838.00
791.00	14864.00
792.00	15006.00
793.00	15353.00
794.00	15495.00
795.00	15612.00
796.00	15799.00
797.00	16012.00
798.00	16184.00
799.00	16254.00
800.00	16416.00
801.00	16425.00
802.00	16543.00
803.00	16918.00
804.00	17059.00
805.00	17166.00
806.00	17616.00
807.00	18183.00
808.00	19091.00
809.00	19726.00
810.00	20699.00
811.00	21714.00
812.00	22995.00
813.00	24392.00
814.00	25331.00
815.00	26469.00
816.00	27845.00
817.00	28587.00
818.00	29390.00
819.00	29371.00
820.00	29351.00
821.00	28404.00
822.00	27955.00
823.00	26971.00
824.00	25561.00
825.00	23788.00
826.00	22603.00
827.00	21199.00
828.00	19534.00
829.00	18323.00
830.00	17334.00
831.00	16377.00
832.00	15496.00
833.00	15080.00
834.00	14596.00
835.00	14427.00
836.00	14313.00
837.00	14054.00
838.00	14129.00
839.00	14373.00
840.00	14277.00
841.00	14387.00
842.00	14303.00
843.00	14563.00
844.00	14377.00
845.00	14384.00
846.00	14423.00
847.00	14148.00
848.00	14024.00
849.00	13737.00
850.00	13777.00
851.00	13698.00
852.00	13742.00
853.00	13584.00
854.00	13337.00
855.00	13313.00
856.00	13285.00
857.00	13140.00
858.00	13318.00
859.00	13257.00
860.00	13465.00
861.00	13278.00
862.00	13406.00
863.00	13325.00
864.00	13560.00
865.00	13379.00
866.00	13533.00
867.00	13571.00
868.00	13531.00
869.00	13604.00
870.00	13923.00
871.00	13534.00
872.00	13965.00
873.00	13757.00
874.00	13803.00
875.00	14000.00
876.00	13805.00
877.00	13842.00
878.00	13761.00
879.00	13935.00
880.00	14293.00
881.00	14205.00
882.00	14180.00
883.00	14164.00
884.00	14409.00
885.00	14669.00
886.00	14855.00
887.00	14781.00
888.00	15126.00
889.00	15194.00
890.00	15306.00
891.00	15568.00
892.00	15993.00
893.00	15952.00
894.00	16052.00
895.00	16761.00
896.00	16818.00
897.00	16958.00
898.00	17256.00
899.00	17480.00
900.00	17721.00
901.00	17735.00
902.00	18191.00
903.00	18069.00
904.00	18537.00
905.00	18786.00
906.00	18723.00
907.00	18884.00
908.00	19120.00
909.00	19495.00
910.00	19486.00
911.00	19490.00
912.00	19751.00
913.00	19757.00
914.00	20033.00
915.00	20174.00
916.00	20124.00
917.00	20087.00
918.00	20433.00
919.00	20559.00
920.00	20479.00
921.00	20486.00
922.00	20888.00
923.00	20903.00
924.00	20891.00
925.00	21249.00
926.00	21373.00
927.00	21613.00
928.00	21701.00
929.00	22057.00
930.00	22328.00
931.00	22651.00
932.00	22940.00
933.00	23443.00
934.00	23733.00
935.00	24333.00
936.00	24766.00
937.00	25355.00
938.00	26068.00
939.00	26478.00
940.00	26870.00
941.00	27469.00
942.00	27342.00
943.00	27719.00
944.00	27360.00
945.00	27476.00
946.00	27053.00
947.00	26678.00
948.00	25900.00
949.00	25592.00
950.00	24962.00
951.00	24677.00
952.00	23703.00
953.00	23001.00
954.00	22538.00
955.00	22233.00
956.00	21801.00
957.00	21188.00
958.00	21008.00
959.00	20920.00
960.00	20769.00
961.00	20580.00
962.00	20530.00
963.00	20686.00
964.00	20488.00
965.00	21023.00
966.00	20801.00
967.00	21067.00
968.00	21206.00
969.00	21030.00
970.00	21535.00
971.00	21321.00
972.00	21054.00
973.00	21113.00
974.00	20760.00
975.00	20910.00
976.00	20886.00
977.00	20491.00
978.00	20070.00
979.00	19975.00
980.00	19689.00
981.00	19333.00
982.00	19148.00
983.00	19238.00
984.00	18917.00
985.00	18740.00
986.00	18731.00
987.00	18546.00
988.00	18444.00
989.00	18286.00
990.00	18390.00
991.00	18110.00
992.00	17988.00
993.00	18025.00
994.00	18071.00
995.00	18012.00
996.00	18114.00
997.00	18028.00
998.00	18013.00
999.00	18266.00
1000.00	17956.00
1001.00	18020.00
1002.00	17900.00
1003.00	17989.00
1004.00	17928.00
1005.00	17801.00
1006.00	17962.00
1007.00	17846.00
1008.00	17876.00
1009.00	17908.00
1010.00	18127.00
1011.00	18319.00
1012.00	17954.00
1013.00	18133.00
1014.00	17901.00
1015.00	18112.00
1016.00	18231.00
1017.00	18046.00
1018.00	18125.00
1019.00	18407.00
1020.00	18512.00
1021.00	18585.00
1022.00	18702.00
1023.00	18689.00
1024.00	18924.00
1025.00	18811.00
1026.00	18699.00
1027.00	18878.00
1028.00	18632.00
1029.00	18937.00
1030.00	18781.00
1031.00	18836.00
1032.00	19241.00
1033.00	18872.00
1034.00	18431.00
1035.00	18919.00
1036.00	19034.00
1037.00	18841.00
1038.00	18992.00
1039.00	18980.00
1040.00	18814.00
1041.00	19052.00
1042.00	19012.00
1043.00	18931.00
1044.00	18991.00
1045.00	19115.00
1046.00	19164.00
1047.00	19154.00
1048.00	19415.00
1049.00	19234.00
1050.00	19565.00
1051.00	19491.00
1052.00	19696.00
1053.00	19656.00
1054.00	19696.00
1055.00	19606.00
1056.00	19899.00
1057.00	20164.00
1058.00	19714.00
1059.00	19880.00
1060.00	20254.00
1061.00	20458.00
1062.00	20081.00
1063.00	19955.00
1064.00	20284.00
1065.00	20326.00
1066.00	20139.00
1067.00	20276.00
1068.00	20329.00
1069.00	20417.00
1070.00	20515.00
1071.00	20262.00
1072.00	20422.00
1073.00	20064.00
1074.00	20590.00
1075.00	20432.00
1076.00	19983.00
1077.00	20465.00
1078.00	20226.00
1079.00	20340.00
1080.00	20403.00
1081.00	20587.00
1082.00	20460.00
1083.00	20593.00
1084.00	20506.00
1085.00	20510.00
1086.00	20817.00
1087.00	20729.00
1088.00	20793.00
1089.00	20971.00
1090.00	21238.00
1091.00	21364.00
1092.00	21094.00
1093.00	21335.00
1094.00	21531.00
1095.00	21760.00
1096.00	21528.00
1097.00	21739.00
1098.00	21954.00
1099.00	22002.00
1100.00	22033.00
1101.00	22054.00
1102.00	22139.00
1103.00	21985.00
1104.00	21830.00
1105.00	22377.00
1106.00	21687.00
1107.00	21819.00
1108.00	21567.00
1109.00	21615.00
1110.00	21982.00
1111.00	21740.00
1112.00	21572.00
1113.00	21645.00
1114.00	21129.00
1115.00	21533.00
1116.00	21575.00
1117.00	21503.00
1118.00	21428.00
1119.00	21588.00
1120.00	21540.00
1121.00	21583.00
1122.00	21468.00
1123.00	21633.00
1124.00	21450.00
1125.00	21324.00
1126.00	21455.00
1127.00	21651.00
1128.00	21622.00
1129.00	21733.00
1130.00	21522.00
1131.00	21824.00
1132.00	21684.00
1133.00	21736.00
1134.00	21756.00
1135.00	21715.00
1136.00	21759.00
1137.00	22049.00
1138.00	21410.00
1139.00	21824.00
1140.00	21989.00
1141.00	21562.00
1142.00	21921.00
1143.00	21897.00
1144.00	21710.00
1145.00	22037.00
1146.00	22097.00
1147.00	22191.00
1148.00	22517.00
1149.00	22509.00
1150.00	22924.00
1151.00	23272.00
1152.00	23537.00
1153.00	23974.00
1154.00	24282.00
1155.00	24547.00
1156.00	24639.00
1157.00	25119.00
1158.00	25151.00
1159.00	25497.00
1160.00	25842.00
1161.00	25847.00
1162.00	25797.00
1163.00	26000.00
1164.00	25581.00
1165.00	25332.00
1166.00	25206.00
1167.00	24860.00
1168.00	24577.00
1169.00	24276.00
1170.00	24072.00
1171.00	23776.00
1172.00	23513.00
1173.00	23380.00
1174.00	22722.00
1175.00	22512.00
1176.00	22268.00
1177.00	22230.00
1178.00	22064.00
1179.00	21811.00
1180.00	21814.00
1181.00	21956.00
1182.00	21687.00
1183.00	21668.00
1184.00	21785.00
1185.00	21686.00
1186.00	21817.00
1187.00	21654.00
1188.00	21808.00
1189.00	21779.00
1190.00	21922.00
1191.00	21768.00
1192.00	21742.00
1193.00	21662.00
1194.00	21824.00
1195.00	21832.00
1196.00	21712.00
1197.00	21886.00
1198.00	21853.00
1199.00	21795.00
1200.00	21862.00
1201.00	22115.00
1202.00	22060.00
1203.00	22016.00
1204.00	22049.00
1205.00	22256.00
1206.00	22221.00
1207.00	21996.00
1208.00	22374.00
1209.00	22083.00
1210.00	22371.00
1211.00	22313.00
1212.00	22457.00
1213.00	22407.00
1214.00	22268.00
1215.00	22228.00
1216.00	22098.00
1217.00	22597.00
1218.00	22926.00
1219.00	22698.00
1220.00	22896.00
1221.00	22519.00
1222.00	22848.00
1223.00	22924.00
1224.00	23011.00
1225.00	23240.00
1226.00	22804.00
1227.00	22974.00
1228.00	23094.00
1229.00	22995.00
1230.00	23086.00
1231.00	23218.00
1232.00	23098.00
1233.00	23132.00
1234.00	23042.00
1235.00	23179.00
1236.00	23374.00
1237.00	23063.00
1238.00	23082.00
1239.00	23238.00
1240.00	22951.00
1241.00	22971.00
1242.00	23193.00
1243.00	23084.00
1244.00	23360.00
1245.00	22996.00
1246.00	23244.00
1247.00	22607.00
