Date:	01/02/2022		
Time:	17:21		
Sample name:	JC36_74_4		
Position:	1504.105018	mm	
Sample surface:	7.282134	cm	
Tube anode:	Mo		
Tube voltage:	30	kV	
Tube current:	30	mA	
Comments	not in position		
Gain	2.150000		
peaking_time	0.300000	m-sec	
trigger_threshold	40.000000	V	
mca_bin_width	2.000000	no:	
number_mca_channels	2048.000000	no:	
gap_time	0.100000	m-sec	
trigger_peaking_time	0.050000	m-sec	
livetime	12.537525	seconds	
runtime	15.000282	seconds	
input_count_rate	75272.829236	cps	
output_count_rate	62914.483874	cps	
triggers	1093529.000000	seconds	
events_in_run	905147.000000	seconds	
channel	content		
 1.00	 0.00
 2.00	 0.00
 3.00	 0.00
 4.00	 0.00
 5.00	 0.00
 6.00	 0.00
 7.00	 0.00
 8.00	 0.00
 9.00	 0.00
10.00	 0.00
11.00	 0.00
12.00	 0.00
13.00	 0.00
14.00	 0.00
15.00	 0.00
16.00	 0.00
17.00	 0.00
18.00	 0.00
19.00	 0.00
20.00	 0.00
21.00	 0.00
22.00	 0.00
23.00	 0.00
24.00	 0.00
25.00	 0.00
26.00	 0.00
27.00	 0.00
28.00	 0.00
29.00	 0.00
30.00	 0.00
31.00	731.00
32.00	768.00
33.00	765.00
34.00	732.00
35.00	693.00
36.00	747.00
37.00	766.00
38.00	741.00
39.00	762.00
40.00	723.00
41.00	692.00
42.00	719.00
43.00	718.00
44.00	751.00
45.00	801.00
46.00	874.00
47.00	953.00
48.00	1115.00
49.00	1375.00
50.00	1948.00
51.00	2780.00
52.00	3925.00
53.00	5003.00
54.00	6706.00
55.00	8860.00
56.00	11415.00
57.00	16159.00
58.00	23162.00
59.00	31964.00
60.00	40649.00
61.00	47369.00
62.00	52074.00
63.00	53704.00
64.00	53788.00
65.00	51961.00
66.00	50422.00
67.00	48622.00
68.00	47239.00
69.00	46017.00
70.00	46099.00
71.00	45703.00
72.00	44778.00
73.00	45037.00
74.00	44829.00
75.00	44255.00
76.00	44130.00
77.00	43666.00
78.00	43640.00
79.00	43535.00
80.00	43759.00
81.00	43736.00
82.00	43999.00
83.00	44829.00
84.00	45669.00
85.00	45345.00
86.00	45198.00
87.00	44839.00
88.00	44052.00
89.00	42818.00
90.00	42110.00
91.00	40650.00
92.00	39640.00
93.00	39221.00
94.00	38688.00
95.00	38023.00
96.00	37416.00
97.00	37220.00
98.00	36876.00
99.00	36457.00
100.00	36110.00
101.00	35437.00
102.00	35554.00
103.00	35297.00
104.00	34837.00
105.00	34382.00
106.00	34219.00
107.00	33358.00
108.00	33291.00
109.00	32596.00
110.00	31987.00
111.00	31585.00
112.00	31395.00
113.00	31037.00
114.00	30314.00
115.00	30569.00
116.00	30322.00
117.00	30279.00
118.00	29920.00
119.00	29649.00
120.00	29365.00
121.00	29068.00
122.00	28380.00
123.00	28117.00
124.00	27551.00
125.00	26822.00
126.00	26621.00
127.00	25883.00
128.00	25780.00
129.00	25748.00
130.00	25424.00
131.00	25267.00
132.00	24785.00
133.00	24750.00
134.00	24513.00
135.00	24597.00
136.00	24320.00
137.00	24371.00
138.00	24781.00
139.00	25587.00
140.00	26837.00
141.00	27964.00
142.00	30211.00
143.00	31898.00
144.00	33562.00
145.00	34257.00
146.00	34611.00
147.00	33525.00
148.00	33093.00
149.00	31555.00
150.00	30550.00
151.00	29599.00
152.00	28817.00
153.00	28344.00
154.00	27787.00
155.00	27061.00
156.00	25869.00
157.00	24907.00
158.00	23729.00
159.00	23097.00
160.00	23221.00
161.00	24985.00
162.00	28913.00
163.00	35775.00
164.00	47039.00
165.00	63726.00
166.00	84861.00
167.00	109978.00
168.00	133756.00
169.00	155071.00
170.00	166937.00
171.00	169002.00
172.00	159497.00
173.00	142416.00
174.00	120078.00
175.00	96357.00
176.00	76007.00
177.00	60180.00
178.00	49244.00
179.00	41775.00
180.00	38521.00
181.00	37269.00
182.00	38026.00
183.00	40870.00
184.00	46452.00
185.00	55070.00
186.00	66983.00
187.00	81149.00
188.00	96015.00
189.00	109127.00
190.00	118061.00
191.00	121014.00
192.00	116035.00
193.00	106706.00
194.00	91694.00
195.00	75603.00
196.00	59683.00
197.00	46618.00
198.00	36296.00
199.00	28709.00
200.00	23673.00
201.00	20709.00
202.00	18770.00
203.00	17780.00
204.00	17468.00
205.00	17162.00
206.00	17134.00
207.00	17098.00
208.00	16813.00
209.00	17038.00
210.00	16953.00
211.00	17266.00
212.00	17549.00
213.00	17778.00
214.00	18266.00
215.00	19593.00
216.00	20449.00
217.00	22138.00
218.00	24224.00
219.00	26943.00
220.00	29777.00
221.00	32657.00
222.00	34649.00
223.00	36190.00
224.00	36662.00
225.00	36311.00
226.00	35038.00
227.00	33021.00
228.00	30244.00
229.00	27229.00
230.00	24002.00
231.00	21419.00
232.00	19219.00
233.00	17453.00
234.00	16140.00
235.00	15373.00
236.00	14860.00
237.00	14549.00
238.00	14515.00
239.00	14384.00
240.00	14641.00
241.00	15076.00
242.00	15517.00
243.00	16416.00
244.00	17391.00
245.00	19470.00
246.00	23467.00
247.00	29669.00
248.00	39656.00
249.00	55247.00
250.00	76159.00
251.00	103928.00
252.00	136898.00
253.00	175039.00
254.00	211451.00
255.00	242315.00
256.00	263861.00
257.00	271200.00
258.00	263808.00
259.00	243708.00
260.00	211540.00
261.00	173970.00
262.00	136915.00
263.00	102993.00
264.00	75963.00
265.00	54549.00
266.00	40247.00
267.00	31701.00
268.00	27621.00
269.00	26792.00
270.00	28078.00
271.00	30447.00
272.00	33722.00
273.00	36764.00
274.00	39580.00
275.00	41301.00
276.00	41886.00
277.00	41010.00
278.00	39118.00
279.00	37725.00
280.00	36345.00
281.00	35435.00
282.00	36426.00
283.00	40259.00
284.00	45335.00
285.00	52512.00
286.00	61340.00
287.00	69059.00
288.00	76135.00
289.00	80759.00
290.00	81177.00
291.00	78822.00
292.00	72888.00
293.00	64502.00
294.00	55218.00
295.00	45998.00
296.00	37495.00
297.00	30435.00
298.00	24874.00
299.00	21098.00
300.00	18579.00
301.00	16859.00
302.00	16222.00
303.00	16205.00
304.00	16819.00
305.00	17564.00
306.00	18765.00
307.00	20126.00
308.00	22113.00
309.00	24029.00
310.00	27019.00
311.00	30538.00
312.00	36140.00
313.00	43744.00
314.00	56262.00
315.00	73998.00
316.00	99673.00
317.00	136273.00
318.00	183234.00
319.00	237493.00
320.00	299214.00
321.00	362390.00
322.00	418380.00
323.00	462549.00
324.00	485338.00
325.00	487069.00
326.00	463370.00
327.00	420619.00
328.00	363196.00
329.00	299753.00
330.00	237170.00
331.00	178435.00
332.00	130626.00
333.00	93101.00
334.00	65158.00
335.00	47039.00
336.00	35247.00
337.00	29303.00
338.00	27033.00
339.00	27263.00
340.00	29992.00
341.00	35322.00
342.00	42505.00
343.00	53625.00
344.00	69311.00
345.00	93699.00
346.00	128724.00
347.00	181759.00
348.00	264294.00
349.00	394687.00
350.00	594060.00
351.00	889863.00
352.00	1321380.00
353.00	1906708.00
354.00	2669668.00
355.00	3612992.00
356.00	4699791.00
357.00	5849878.00
358.00	6968342.00
359.00	7937743.00
360.00	8649407.00
361.00	8973388.00
362.00	8892490.00
363.00	8405342.00
364.00	7598120.00
365.00	6533766.00
366.00	5375648.00
367.00	4219221.00
368.00	3167202.00
369.00	2271669.00
370.00	1559026.00
371.00	1028499.00
372.00	655374.00
373.00	409382.00
374.00	251577.00
375.00	160446.00
376.00	109974.00
377.00	87253.00
378.00	82108.00
379.00	88249.00
380.00	105423.00
381.00	134160.00
382.00	176551.00
383.00	237927.00
384.00	317887.00
385.00	423156.00
386.00	550116.00
387.00	697921.00
388.00	856976.00
389.00	1016280.00
390.00	1159428.00
391.00	1275451.00
392.00	1340749.00
393.00	1352710.00
394.00	1310645.00
395.00	1218369.00
396.00	1083935.00
397.00	923231.00
398.00	757040.00
399.00	591820.00
400.00	447612.00
401.00	323758.00
402.00	226505.00
403.00	153254.00
404.00	101287.00
405.00	66234.00
406.00	43015.00
407.00	29337.00
408.00	20733.00
409.00	16043.00
410.00	13588.00
411.00	12340.00
412.00	11594.00
413.00	11219.00
414.00	11231.00
415.00	11414.00
416.00	11245.00
417.00	11207.00
418.00	11348.00
419.00	11628.00
420.00	11493.00
421.00	11705.00
422.00	12234.00
423.00	12486.00
424.00	13189.00
425.00	14534.00
426.00	16100.00
427.00	18505.00
428.00	22427.00
429.00	28104.00
430.00	36526.00
431.00	48295.00
432.00	63265.00
433.00	82987.00
434.00	106112.00
435.00	131959.00
436.00	159128.00
437.00	187287.00
438.00	212361.00
439.00	233461.00
440.00	245021.00
441.00	250173.00
442.00	243780.00
443.00	230286.00
444.00	211831.00
445.00	186391.00
446.00	158626.00
447.00	133797.00
448.00	109447.00
449.00	89327.00
450.00	74285.00
451.00	62252.00
452.00	53855.00
453.00	48813.00
454.00	44860.00
455.00	42790.00
456.00	40300.00
457.00	37933.00
458.00	35351.00
459.00	32872.00
460.00	30346.00
461.00	27562.00
462.00	25891.00
463.00	24424.00
464.00	23396.00
465.00	23436.00
466.00	23779.00
467.00	25347.00
468.00	26641.00
469.00	28262.00
470.00	30864.00
471.00	33361.00
472.00	35904.00
473.00	39609.00
474.00	42636.00
475.00	46555.00
476.00	50950.00
477.00	55257.00
478.00	59522.00
479.00	63677.00
480.00	67662.00
481.00	69378.00
482.00	70483.00
483.00	70042.00
484.00	67727.00
485.00	64677.00
486.00	59972.00
487.00	54495.00
488.00	48861.00
489.00	43613.00
490.00	38323.00
491.00	33660.00
492.00	29961.00
493.00	27168.00
494.00	24933.00
495.00	23811.00
496.00	22521.00
497.00	22252.00
498.00	22126.00
499.00	22493.00
500.00	22621.00
501.00	22994.00
502.00	23886.00
503.00	24720.00
504.00	25414.00
505.00	26418.00
506.00	27042.00
507.00	28320.00
508.00	28922.00
509.00	30099.00
510.00	31204.00
511.00	32137.00
512.00	33637.00
513.00	34723.00
514.00	35958.00
515.00	37955.00
516.00	39381.00
517.00	41303.00
518.00	43675.00
519.00	46570.00
520.00	49608.00
521.00	53743.00
522.00	57853.00
523.00	62298.00
524.00	67594.00
525.00	72112.00
526.00	76501.00
527.00	79313.00
528.00	81033.00
529.00	81845.00
530.00	80934.00
531.00	78033.00
532.00	74368.00
533.00	70071.00
534.00	64629.00
535.00	59733.00
536.00	54495.00
537.00	50172.00
538.00	46538.00
539.00	43921.00
540.00	41670.00
541.00	39890.00
542.00	39450.00
543.00	38863.00
544.00	39037.00
545.00	39257.00
546.00	40102.00
547.00	40330.00
548.00	41028.00
549.00	41555.00
550.00	41908.00
551.00	42620.00
552.00	43364.00
553.00	44054.00
554.00	44749.00
555.00	45760.00
556.00	46215.00
557.00	46863.00
558.00	47676.00
559.00	48468.00
560.00	49393.00
561.00	51147.00
562.00	52172.00
563.00	54528.00
564.00	56829.00
565.00	60618.00
566.00	64751.00
567.00	70351.00
568.00	76912.00
569.00	83863.00
570.00	92202.00
571.00	101023.00
572.00	108373.00
573.00	116609.00
574.00	122368.00
575.00	127225.00
576.00	128543.00
577.00	127862.00
578.00	123988.00
579.00	118424.00
580.00	110637.00
581.00	102665.00
582.00	93027.00
583.00	84436.00
584.00	76189.00
585.00	68049.00
586.00	61888.00
587.00	56694.00
588.00	53360.00
589.00	50188.00
590.00	48086.00
591.00	47317.00
592.00	47137.00
593.00	46948.00
594.00	47528.00
595.00	48528.00
596.00	50020.00
597.00	51349.00
598.00	52863.00
599.00	54681.00
600.00	57438.00
601.00	59946.00
602.00	63923.00
603.00	67773.00
604.00	74957.00
605.00	84421.00
606.00	98432.00
607.00	120784.00
608.00	154178.00
609.00	205269.00
610.00	280873.00
611.00	390249.00
612.00	544239.00
613.00	752937.00
614.00	1032201.00
615.00	1388451.00
616.00	1824567.00
617.00	2340268.00
618.00	2925416.00
619.00	3563646.00
620.00	4210973.00
621.00	4841307.00
622.00	5409749.00
623.00	5869539.00
624.00	6170797.00
625.00	6304579.00
626.00	6259592.00
627.00	6024123.00
628.00	5623119.00
629.00	5104622.00
630.00	4501617.00
631.00	3846243.00
632.00	3198245.00
633.00	2589209.00
634.00	2037584.00
635.00	1559772.00
636.00	1172995.00
637.00	861492.00
638.00	624625.00
639.00	448706.00
640.00	323111.00
641.00	235845.00
642.00	179025.00
643.00	140554.00
644.00	115616.00
645.00	100853.00
646.00	91866.00
647.00	86091.00
648.00	84029.00
649.00	81560.00
650.00	80464.00
651.00	80353.00
652.00	80033.00
653.00	80907.00
654.00	80761.00
655.00	81499.00
656.00	82403.00
657.00	83494.00
658.00	84469.00
659.00	85033.00
660.00	86956.00
661.00	88502.00
662.00	90061.00
663.00	91584.00
664.00	93877.00
665.00	96126.00
666.00	98736.00
667.00	101416.00
668.00	105413.00
669.00	110705.00
670.00	116919.00
671.00	123799.00
672.00	134053.00
673.00	147651.00
674.00	164611.00
675.00	186186.00
676.00	218247.00
677.00	256973.00
678.00	306306.00
679.00	366462.00
680.00	436498.00
681.00	518971.00
682.00	608960.00
683.00	701964.00
684.00	797006.00
685.00	886866.00
686.00	962115.00
687.00	1022890.00
688.00	1063228.00
689.00	1076198.00
690.00	1063851.00
691.00	1028382.00
692.00	965733.00
693.00	886589.00
694.00	798740.00
695.00	701638.00
696.00	604324.00
697.00	509225.00
698.00	424253.00
699.00	350945.00
700.00	287125.00
701.00	235024.00
702.00	195740.00
703.00	163873.00
704.00	141364.00
705.00	125837.00
706.00	114770.00
707.00	107565.00
708.00	103435.00
709.00	101723.00
710.00	100986.00
711.00	101407.00
712.00	102026.00
713.00	104050.00
714.00	106245.00
715.00	108839.00
716.00	111142.00
717.00	114799.00
718.00	118385.00
719.00	122314.00
720.00	125972.00
721.00	130386.00
722.00	134537.00
723.00	138587.00
724.00	142912.00
725.00	146504.00
726.00	149310.00
727.00	151416.00
728.00	152049.00
729.00	153841.00
730.00	152607.00
731.00	151593.00
732.00	149344.00
733.00	145596.00
734.00	141974.00
735.00	138553.00
736.00	134041.00
737.00	130550.00
738.00	126280.00
739.00	123732.00
740.00	119526.00
741.00	116686.00
742.00	115753.00
743.00	113526.00
744.00	112934.00
745.00	112096.00
746.00	111353.00
747.00	110785.00
748.00	111623.00
749.00	111477.00
750.00	110896.00
751.00	111332.00
752.00	111069.00
753.00	110461.00
754.00	111087.00
755.00	110917.00
756.00	111597.00
757.00	111837.00
758.00	112531.00
759.00	112377.00
760.00	112689.00
761.00	113009.00
762.00	113908.00
763.00	114799.00
764.00	115300.00
765.00	115894.00
766.00	117792.00
767.00	118834.00
768.00	120030.00
769.00	122714.00
770.00	124209.00
771.00	126598.00
772.00	129615.00
773.00	131556.00
774.00	135082.00
775.00	139407.00
776.00	143021.00
777.00	147626.00
778.00	151996.00
779.00	156640.00
780.00	162918.00
781.00	168895.00
782.00	174435.00
783.00	180630.00
784.00	184667.00
785.00	191021.00
786.00	196445.00
787.00	201176.00
788.00	205535.00
789.00	209977.00
790.00	214352.00
791.00	217270.00
792.00	221557.00
793.00	222956.00
794.00	227101.00
795.00	228826.00
796.00	230727.00
797.00	233213.00
798.00	234990.00
799.00	236419.00
800.00	239566.00
801.00	241323.00
802.00	243348.00
803.00	246279.00
804.00	250317.00
805.00	255209.00
806.00	262754.00
807.00	268609.00
808.00	280447.00
809.00	292529.00
810.00	305163.00
811.00	321193.00
812.00	338353.00
813.00	356452.00
814.00	375004.00
815.00	391307.00
816.00	406713.00
817.00	418690.00
818.00	425724.00
819.00	429800.00
820.00	429294.00
821.00	422558.00
822.00	411333.00
823.00	395481.00
824.00	377023.00
825.00	356311.00
826.00	334921.00
827.00	314089.00
828.00	292623.00
829.00	274456.00
830.00	257676.00
831.00	245618.00
832.00	233039.00
833.00	225399.00
834.00	219827.00
835.00	215769.00
836.00	214175.00
837.00	214534.00
838.00	213299.00
839.00	214558.00
840.00	214502.00
841.00	215353.00
842.00	215234.00
843.00	215198.00
844.00	216172.00
845.00	215005.00
846.00	214911.00
847.00	212734.00
848.00	210986.00
849.00	209308.00
850.00	207584.00
851.00	206240.00
852.00	203513.00
853.00	202397.00
854.00	201486.00
855.00	200835.00
856.00	200037.00
857.00	198895.00
858.00	199706.00
859.00	198376.00
860.00	199074.00
861.00	199794.00
862.00	200171.00
863.00	200612.00
864.00	201239.00
865.00	202130.00
866.00	202243.00
867.00	202597.00
868.00	203164.00
869.00	204699.00
870.00	204700.00
871.00	205156.00
872.00	206409.00
873.00	205892.00
874.00	207372.00
875.00	207964.00
876.00	207965.00
877.00	208260.00
878.00	209376.00
879.00	209945.00
880.00	211760.00
881.00	211847.00
882.00	213254.00
883.00	213323.00
884.00	214650.00
885.00	216821.00
886.00	219112.00
887.00	221377.00
888.00	223327.00
889.00	226073.00
890.00	228012.00
891.00	229804.00
892.00	233581.00
893.00	236802.00
894.00	240002.00
895.00	242392.00
896.00	246789.00
897.00	250236.00
898.00	254305.00
899.00	256522.00
900.00	260964.00
901.00	264093.00
902.00	267968.00
903.00	270152.00
904.00	273647.00
905.00	277675.00
906.00	278892.00
907.00	280998.00
908.00	284762.00
909.00	287020.00
910.00	288521.00
911.00	290407.00
912.00	292074.00
913.00	295021.00
914.00	295176.00
915.00	297722.00
916.00	298567.00
917.00	300718.00
918.00	302542.00
919.00	304315.00
920.00	305702.00
921.00	307535.00
922.00	309104.00
923.00	310065.00
924.00	312480.00
925.00	314223.00
926.00	317061.00
927.00	319470.00
928.00	323206.00
929.00	326078.00
930.00	330355.00
931.00	336008.00
932.00	340490.00
933.00	346365.00
934.00	354020.00
935.00	361158.00
936.00	369492.00
937.00	376363.00
938.00	385206.00
939.00	392773.00
940.00	400296.00
941.00	404205.00
942.00	407918.00
943.00	411696.00
944.00	410014.00
945.00	407665.00
946.00	404364.00
947.00	398945.00
948.00	391078.00
949.00	381652.00
950.00	372121.00
951.00	363623.00
952.00	353702.00
953.00	345236.00
954.00	337827.00
955.00	329874.00
956.00	324337.00
957.00	320122.00
958.00	314220.00
959.00	312236.00
960.00	310611.00
961.00	310714.00
962.00	309166.00
963.00	309433.00
964.00	309161.00
965.00	310832.00
966.00	313296.00
967.00	314114.00
968.00	314836.00
969.00	316577.00
970.00	318363.00
971.00	317720.00
972.00	317732.00
973.00	316848.00
974.00	315607.00
975.00	313326.00
976.00	309736.00
977.00	306966.00
978.00	303342.00
979.00	299508.00
980.00	295923.00
981.00	293359.00
982.00	290390.00
983.00	286733.00
984.00	283342.00
985.00	281523.00
986.00	280246.00
987.00	278582.00
988.00	276858.00
989.00	274951.00
990.00	274306.00
991.00	273867.00
992.00	272755.00
993.00	271280.00
994.00	271286.00
995.00	270208.00
996.00	269548.00
997.00	269516.00
998.00	269202.00
999.00	267507.00
1000.00	268824.00
1001.00	267941.00
1002.00	267607.00
1003.00	267252.00
1004.00	267450.00
1005.00	268017.00
1006.00	267853.00
1007.00	268109.00
1008.00	268071.00
1009.00	269451.00
1010.00	268363.00
1011.00	268593.00
1012.00	269891.00
1013.00	270007.00
1014.00	270490.00
1015.00	271684.00
1016.00	271577.00
1017.00	273650.00
1018.00	274217.00
1019.00	275688.00
1020.00	275895.00
1021.00	278847.00
1022.00	277438.00
1023.00	279607.00
1024.00	280745.00
1025.00	281537.00
1026.00	283107.00
1027.00	282450.00
1028.00	283911.00
1029.00	283430.00
1030.00	284516.00
1031.00	283297.00
1032.00	283905.00
1033.00	284448.00
1034.00	283178.00
1035.00	283966.00
1036.00	284844.00
1037.00	282685.00
1038.00	282547.00
1039.00	282272.00
1040.00	282790.00
1041.00	282888.00
1042.00	283497.00
1043.00	284156.00
1044.00	283978.00
1045.00	285305.00
1046.00	286327.00
1047.00	286844.00
1048.00	288147.00
1049.00	288828.00
1050.00	289572.00
1051.00	291027.00
1052.00	290887.00
1053.00	293075.00
1054.00	293888.00
1055.00	294422.00
1056.00	296641.00
1057.00	297213.00
1058.00	298774.00
1059.00	299298.00
1060.00	299570.00
1061.00	301261.00
1062.00	301308.00
1063.00	302431.00
1064.00	302815.00
1065.00	303577.00
1066.00	303933.00
1067.00	303280.00
1068.00	304947.00
1069.00	305849.00
1070.00	304368.00
1071.00	305417.00
1072.00	306052.00
1073.00	306054.00
1074.00	305750.00
1075.00	305487.00
1076.00	305533.00
1077.00	306100.00
1078.00	306937.00
1079.00	306234.00
1080.00	306798.00
1081.00	307070.00
1082.00	307986.00
1083.00	308033.00
1084.00	308039.00
1085.00	309862.00
1086.00	310586.00
1087.00	311181.00
1088.00	312378.00
1089.00	313934.00
1090.00	315546.00
1091.00	316511.00
1092.00	318135.00
1093.00	321209.00
1094.00	321864.00
1095.00	324064.00
1096.00	325682.00
1097.00	327520.00
1098.00	328850.00
1099.00	330017.00
1100.00	330945.00
1101.00	332215.00
1102.00	331033.00
1103.00	330827.00
1104.00	330692.00
1105.00	329677.00
1106.00	327774.00
1107.00	327657.00
1108.00	327156.00
1109.00	326090.00
1110.00	325917.00
1111.00	324104.00
1112.00	322476.00
1113.00	322759.00
1114.00	321626.00
1115.00	321385.00
1116.00	319935.00
1117.00	321525.00
1118.00	320917.00
1119.00	321133.00
1120.00	321151.00
1121.00	320885.00
1122.00	321264.00
1123.00	322060.00
1124.00	322865.00
1125.00	322881.00
1126.00	322682.00
1127.00	323746.00
1128.00	325032.00
1129.00	324433.00
1130.00	325653.00
1131.00	326354.00
1132.00	325647.00
1133.00	326872.00
1134.00	326685.00
1135.00	326817.00
1136.00	327486.00
1137.00	327170.00
1138.00	327756.00
1139.00	328278.00
1140.00	328200.00
1141.00	327408.00
1142.00	327667.00
1143.00	329267.00
1144.00	331004.00
1145.00	332295.00
1146.00	333612.00
1147.00	336295.00
1148.00	339121.00
1149.00	341618.00
1150.00	346049.00
1151.00	350622.00
1152.00	355240.00
1153.00	360184.00
1154.00	365443.00
1155.00	370272.00
1156.00	376405.00
1157.00	380827.00
1158.00	385238.00
1159.00	388271.00
1160.00	390496.00
1161.00	392733.00
1162.00	392759.00
1163.00	392442.00
1164.00	391006.00
1165.00	387904.00
1166.00	384900.00
1167.00	379678.00
1168.00	374212.00
1169.00	369880.00
1170.00	364466.00
