Date:	01/02/2022		
Time:	17:49		
Sample name:	JC36_74_4		
Position:	196.000018	mm	
Sample surface:	7.855705	cm	
Tube anode:	Mo		
Tube voltage:	30	kV	
Tube current:	30	mA	
Comments	not in position		
Gain	2.150000		
peaking_time	0.300000	m-sec	
trigger_threshold	40.000000	V	
mca_bin_width	2.000000	no:	
number_mca_channels	2048.000000	no:	
gap_time	0.100000	m-sec	
trigger_peaking_time	0.050000	m-sec	
livetime	12.411348	seconds	
runtime	15.000215	seconds	
input_count_rate	84052.673910	cps	
output_count_rate	69546.136505	cps	
triggers	1216176.000000	seconds	
events_in_run	999777.000000	seconds	
channel	content		
 1.00	 0.00
 2.00	 0.00
 3.00	 0.00
 4.00	 0.00
 5.00	 0.00
 6.00	 0.00
 7.00	 0.00
 8.00	 0.00
 9.00	 0.00
10.00	 0.00
11.00	 0.00
12.00	 0.00
13.00	 0.00
14.00	 0.00
15.00	 0.00
16.00	 0.00
17.00	 0.00
18.00	 0.00
19.00	 0.00
20.00	 0.00
21.00	 0.00
22.00	 0.00
23.00	 0.00
24.00	 0.00
25.00	 0.00
26.00	 0.00
27.00	 0.00
28.00	 0.00
29.00	 0.00
30.00	 0.00
31.00	44.00
32.00	65.00
33.00	56.00
34.00	53.00
35.00	39.00
36.00	36.00
37.00	36.00
38.00	55.00
39.00	40.00
40.00	53.00
41.00	54.00
42.00	42.00
43.00	46.00
44.00	43.00
45.00	71.00
46.00	54.00
47.00	71.00
48.00	93.00
49.00	92.00
50.00	121.00
51.00	170.00
52.00	256.00
53.00	320.00
54.00	419.00
55.00	592.00
56.00	763.00
57.00	1006.00
58.00	1553.00
59.00	2136.00
60.00	2646.00
61.00	3160.00
62.00	3331.00
63.00	3496.00
64.00	3457.00
65.00	3383.00
66.00	3295.00
67.00	3181.00
68.00	3084.00
69.00	3090.00
70.00	2922.00
71.00	2858.00
72.00	2908.00
73.00	2813.00
74.00	2924.00
75.00	2862.00
76.00	2930.00
77.00	2818.00
78.00	2746.00
79.00	2795.00
80.00	2905.00
81.00	2845.00
82.00	2840.00
83.00	2868.00
84.00	2944.00
85.00	2883.00
86.00	2973.00
87.00	2806.00
88.00	2864.00
89.00	2745.00
90.00	2635.00
91.00	2615.00
92.00	2560.00
93.00	2405.00
94.00	2500.00
95.00	2487.00
96.00	2539.00
97.00	2488.00
98.00	2482.00
99.00	2422.00
100.00	2264.00
101.00	2379.00
102.00	2326.00
103.00	2224.00
104.00	2247.00
105.00	2299.00
106.00	2280.00
107.00	2243.00
108.00	2055.00
109.00	2168.00
110.00	2060.00
111.00	1961.00
112.00	2054.00
113.00	2051.00
114.00	2073.00
115.00	2034.00
116.00	2041.00
117.00	2055.00
118.00	1996.00
119.00	1891.00
120.00	1924.00
121.00	1926.00
122.00	1873.00
123.00	1826.00
124.00	1846.00
125.00	1713.00
126.00	1694.00
127.00	1709.00
128.00	1701.00
129.00	1676.00
130.00	1632.00
131.00	1672.00
132.00	1579.00
133.00	1594.00
134.00	1614.00
135.00	1586.00
136.00	1598.00
137.00	1685.00
138.00	1648.00
139.00	1706.00
140.00	1713.00
141.00	1847.00
142.00	2064.00
143.00	2053.00
144.00	2190.00
145.00	2287.00
146.00	2271.00
147.00	2229.00
148.00	2211.00
149.00	2069.00
150.00	1935.00
151.00	1888.00
152.00	1889.00
153.00	1799.00
154.00	1726.00
155.00	1767.00
156.00	1661.00
157.00	1597.00
158.00	1591.00
159.00	1651.00
160.00	1644.00
161.00	1926.00
162.00	2510.00
163.00	3503.00
164.00	5012.00
165.00	7139.00
166.00	9894.00
167.00	13208.00
168.00	16555.00
169.00	18939.00
170.00	20701.00
171.00	21064.00
172.00	19669.00
173.00	17524.00
174.00	14537.00
175.00	11419.00
176.00	8608.00
177.00	6481.00
178.00	4835.00
179.00	4041.00
180.00	3438.00
181.00	3109.00
182.00	2883.00
183.00	3178.00
184.00	3448.00
185.00	4018.00
186.00	4828.00
187.00	5918.00
188.00	6914.00
189.00	7906.00
190.00	8519.00
191.00	8657.00
192.00	8369.00
193.00	7623.00
194.00	6557.00
195.00	5371.00
196.00	4248.00
197.00	3304.00
198.00	2569.00
199.00	1966.00
200.00	1613.00
201.00	1416.00
202.00	1302.00
203.00	1183.00
204.00	1125.00
205.00	1164.00
206.00	1108.00
207.00	1068.00
208.00	1179.00
209.00	1103.00
210.00	1125.00
211.00	1117.00
212.00	1156.00
213.00	1225.00
214.00	1249.00
215.00	1316.00
216.00	1374.00
217.00	1537.00
218.00	1547.00
219.00	1787.00
220.00	1989.00
221.00	2173.00
222.00	2263.00
223.00	2352.00
224.00	2425.00
225.00	2315.00
226.00	2104.00
227.00	2118.00
228.00	1883.00
229.00	1698.00
230.00	1509.00
231.00	1362.00
232.00	1228.00
233.00	1149.00
234.00	1026.00
235.00	983.00
236.00	983.00
237.00	947.00
238.00	886.00
239.00	967.00
240.00	1018.00
241.00	987.00
242.00	973.00
243.00	1013.00
244.00	1044.00
245.00	1083.00
246.00	1384.00
247.00	1637.00
248.00	2046.00
249.00	2803.00
250.00	3715.00
251.00	4959.00
252.00	6339.00
253.00	8230.00
254.00	9848.00
255.00	11184.00
256.00	11979.00
257.00	12416.00
258.00	12011.00
259.00	11135.00
260.00	9788.00
261.00	8070.00
262.00	6529.00
263.00	4949.00
264.00	3755.00
265.00	2737.00
266.00	1991.00
267.00	1706.00
268.00	1501.00
269.00	1417.00
270.00	1491.00
271.00	1580.00
272.00	1779.00
273.00	1902.00
274.00	1992.00
275.00	2114.00
276.00	2139.00
277.00	2107.00
278.00	2124.00
279.00	2058.00
280.00	2012.00
281.00	2101.00
282.00	2355.00
283.00	2670.00
284.00	3024.00
285.00	3754.00
286.00	4392.00
287.00	5020.00
288.00	5376.00
289.00	5754.00
290.00	5868.00
291.00	5557.00
292.00	5235.00
293.00	4623.00
294.00	4024.00
295.00	3222.00
296.00	2742.00
297.00	2178.00
298.00	1716.00
299.00	1500.00
300.00	1285.00
301.00	1195.00
302.00	1023.00
303.00	1131.00
304.00	1171.00
305.00	1148.00
306.00	1325.00
307.00	1377.00
308.00	1513.00
309.00	1661.00
310.00	1824.00
311.00	2011.00
312.00	2190.00
313.00	2748.00
314.00	3465.00
315.00	4576.00
316.00	5958.00
317.00	7875.00
318.00	10393.00
319.00	13584.00
320.00	16973.00
321.00	20450.00
322.00	23385.00
323.00	25738.00
324.00	27478.00
325.00	27450.00
326.00	25802.00
327.00	23785.00
328.00	20374.00
329.00	16827.00
330.00	13436.00
331.00	10271.00
332.00	7319.00
333.00	5454.00
334.00	3728.00
335.00	2779.00
336.00	2177.00
337.00	1885.00
338.00	1789.00
339.00	1829.00
340.00	1989.00
341.00	2388.00
342.00	2871.00
343.00	3507.00
344.00	4606.00
345.00	6188.00
346.00	8529.00
347.00	12327.00
348.00	18403.00
349.00	27561.00
350.00	41728.00
351.00	63509.00
352.00	93994.00
353.00	136748.00
354.00	192479.00
355.00	261008.00
356.00	340320.00
357.00	423708.00
358.00	505483.00
359.00	574947.00
360.00	628989.00
361.00	652115.00
362.00	644685.00
363.00	611444.00
364.00	551786.00
365.00	475229.00
366.00	390142.00
367.00	306240.00
368.00	230043.00
369.00	164775.00
370.00	113149.00
371.00	75037.00
372.00	47858.00
373.00	29834.00
374.00	18085.00
375.00	11448.00
376.00	7905.00
377.00	6180.00
378.00	5824.00
379.00	6209.00
380.00	7295.00
381.00	9328.00
382.00	12331.00
383.00	16472.00
384.00	22224.00
385.00	29439.00
386.00	38859.00
387.00	49226.00
388.00	60412.00
389.00	71433.00
390.00	81741.00
391.00	89093.00
392.00	94256.00
393.00	95132.00
394.00	92202.00
395.00	85503.00
396.00	76125.00
397.00	65106.00
398.00	53388.00
399.00	41503.00
400.00	31678.00
401.00	22301.00
402.00	15724.00
403.00	10536.00
404.00	6935.00
405.00	4427.00
406.00	2859.00
407.00	1902.00
408.00	1264.00
409.00	1011.00
410.00	783.00
411.00	695.00
412.00	670.00
413.00	693.00
414.00	621.00
415.00	624.00
416.00	686.00
417.00	630.00
418.00	685.00
419.00	650.00
420.00	677.00
421.00	722.00
422.00	705.00
423.00	809.00
424.00	792.00
425.00	786.00
426.00	964.00
427.00	1000.00
428.00	1250.00
429.00	1482.00
430.00	1765.00
431.00	2309.00
432.00	3110.00
433.00	4012.00
434.00	4924.00
435.00	6015.00
436.00	7393.00
437.00	8524.00
438.00	9440.00
439.00	10536.00
440.00	10927.00
441.00	11172.00
442.00	11081.00
443.00	10488.00
444.00	9332.00
445.00	8387.00
446.00	7248.00
447.00	6061.00
448.00	4894.00
449.00	4175.00
450.00	3464.00
451.00	2903.00
452.00	2508.00
453.00	2289.00
454.00	2192.00
455.00	2033.00
456.00	1839.00
457.00	1812.00
458.00	1737.00
459.00	1536.00
460.00	1482.00
461.00	1422.00
462.00	1387.00
463.00	1357.00
464.00	1293.00
465.00	1470.00
466.00	1299.00
467.00	1516.00
468.00	1572.00
469.00	1742.00
470.00	1865.00
471.00	2003.00
472.00	2178.00
473.00	2374.00
474.00	2540.00
475.00	2552.00
476.00	2850.00
477.00	3054.00
478.00	3165.00
479.00	3353.00
480.00	3468.00
481.00	3583.00
482.00	3615.00
483.00	3388.00
484.00	3359.00
485.00	3216.00
486.00	2974.00
487.00	2793.00
488.00	2458.00
489.00	2201.00
490.00	1911.00
491.00	1778.00
492.00	1594.00
493.00	1370.00
494.00	1264.00
495.00	1244.00
496.00	1170.00
497.00	1168.00
498.00	1193.00
499.00	1196.00
500.00	1187.00
501.00	1297.00
502.00	1232.00
503.00	1342.00
504.00	1411.00
505.00	1410.00
506.00	1488.00
507.00	1553.00
508.00	1598.00
509.00	1700.00
510.00	1692.00
511.00	1764.00
512.00	1898.00
513.00	1873.00
514.00	2025.00
515.00	2059.00
516.00	2135.00
517.00	2318.00
518.00	2495.00
519.00	2476.00
520.00	2776.00
521.00	2972.00
522.00	3356.00
523.00	3552.00
524.00	3815.00
525.00	4166.00
526.00	4383.00
527.00	4574.00
528.00	4747.00
529.00	4788.00
530.00	4662.00
531.00	4615.00
532.00	4325.00
533.00	4053.00
534.00	3805.00
535.00	3522.00
536.00	3161.00
537.00	2936.00
538.00	2820.00
539.00	2670.00
540.00	2639.00
541.00	2480.00
542.00	2390.00
543.00	2414.00
544.00	2470.00
545.00	2513.00
546.00	2638.00
547.00	2637.00
548.00	2764.00
549.00	2630.00
550.00	2693.00
551.00	2783.00
552.00	2887.00
553.00	2861.00
554.00	2996.00
555.00	2930.00
556.00	2861.00
557.00	2957.00
558.00	2862.00
559.00	3052.00
560.00	3088.00
561.00	3044.00
562.00	3215.00
563.00	3345.00
564.00	3339.00
565.00	3494.00
566.00	3762.00
567.00	4028.00
568.00	4276.00
569.00	4498.00
570.00	5031.00
571.00	5422.00
572.00	5841.00
573.00	6186.00
574.00	6637.00
575.00	6657.00
576.00	6624.00
577.00	6644.00
578.00	6496.00
579.00	6231.00
580.00	5897.00
581.00	5406.00
582.00	4844.00
583.00	4391.00
584.00	4023.00
585.00	3670.00
586.00	3373.00
587.00	3042.00
588.00	2935.00
589.00	2662.00
590.00	2590.00
591.00	2598.00
592.00	2484.00
593.00	2613.00
594.00	2521.00
595.00	2608.00
596.00	2759.00
597.00	2754.00
598.00	2891.00
599.00	3084.00
600.00	3331.00
601.00	3336.00
602.00	3492.00
603.00	3665.00
604.00	4010.00
605.00	4357.00
606.00	5193.00
607.00	6035.00
608.00	7357.00
609.00	9678.00
610.00	12862.00
611.00	17534.00
612.00	23981.00
613.00	32741.00
614.00	44631.00
615.00	59522.00
616.00	77816.00
617.00	99416.00
618.00	124663.00
619.00	152046.00
620.00	179189.00
621.00	204677.00
622.00	229507.00
623.00	249658.00
624.00	261581.00
625.00	267163.00
626.00	264756.00
627.00	255253.00
628.00	238157.00
629.00	216991.00
630.00	191846.00
631.00	163639.00
632.00	136021.00
633.00	111286.00
634.00	87256.00
635.00	67499.00
636.00	50665.00
637.00	37773.00
638.00	27934.00
639.00	20288.00
640.00	14974.00
641.00	11452.00
642.00	8719.00
643.00	7181.00
644.00	6070.00
645.00	5443.00
646.00	5054.00
647.00	4820.00
648.00	4728.00
649.00	4517.00
650.00	4647.00
651.00	4628.00
652.00	4448.00
653.00	4592.00
654.00	4544.00
655.00	4730.00
656.00	4816.00
657.00	4780.00
658.00	4767.00
659.00	4876.00
660.00	4983.00
661.00	5024.00
662.00	5279.00
663.00	5210.00
664.00	5243.00
665.00	5625.00
666.00	5647.00
667.00	5629.00
668.00	5865.00
669.00	6245.00
670.00	6568.00
671.00	6682.00
672.00	7085.00
673.00	7674.00
674.00	8425.00
675.00	9635.00
676.00	10755.00
677.00	12442.00
678.00	14508.00
679.00	16972.00
680.00	19841.00
681.00	23118.00
682.00	27167.00
683.00	31414.00
684.00	35092.00
685.00	38843.00
686.00	42504.00
687.00	44317.00
688.00	46264.00
689.00	46933.00
690.00	46526.00
691.00	44830.00
692.00	42036.00
693.00	38495.00
694.00	35204.00
695.00	31284.00
696.00	26384.00
697.00	22924.00
698.00	19397.00
699.00	16363.00
700.00	13677.00
701.00	11652.00
702.00	9879.00
703.00	8496.00
704.00	7745.00
705.00	7043.00
706.00	6598.00
707.00	6399.00
708.00	6361.00
709.00	6284.00
710.00	6179.00
711.00	6322.00
712.00	6507.00
713.00	6513.00
714.00	6882.00
715.00	7101.00
716.00	7204.00
717.00	7366.00
718.00	7650.00
719.00	7774.00
720.00	8340.00
721.00	8286.00
722.00	8709.00
723.00	8944.00
724.00	9176.00
725.00	9164.00
726.00	9457.00
727.00	9524.00
728.00	9479.00
729.00	9399.00
730.00	9456.00
731.00	9460.00
732.00	9163.00
733.00	8895.00
734.00	8696.00
735.00	8440.00
736.00	8103.00
737.00	7866.00
738.00	7776.00
739.00	7571.00
740.00	7235.00
741.00	7302.00
742.00	6886.00
743.00	7017.00
744.00	6814.00
745.00	6968.00
746.00	6844.00
747.00	6853.00
748.00	6864.00
749.00	6633.00
750.00	6700.00
751.00	6626.00
752.00	6636.00
753.00	6656.00
754.00	6676.00
755.00	6657.00
756.00	6705.00
757.00	6611.00
758.00	6685.00
759.00	6621.00
760.00	6649.00
761.00	6696.00
762.00	6897.00
763.00	6852.00
764.00	6981.00
765.00	6969.00
766.00	7021.00
767.00	7229.00
768.00	7262.00
769.00	7386.00
770.00	7587.00
771.00	7751.00
772.00	7627.00
773.00	8073.00
774.00	8180.00
775.00	8441.00
776.00	8695.00
777.00	8978.00
778.00	9256.00
779.00	9489.00
780.00	9754.00
781.00	10135.00
782.00	10604.00
783.00	10894.00
784.00	11236.00
785.00	11579.00
786.00	12031.00
787.00	12483.00
788.00	12714.00
789.00	12835.00
790.00	13238.00
791.00	13340.00
792.00	13685.00
793.00	13957.00
794.00	14039.00
795.00	14154.00
796.00	14253.00
797.00	14544.00
798.00	14768.00
799.00	14760.00
800.00	15032.00
801.00	15209.00
802.00	15374.00
803.00	15859.00
804.00	15888.00
805.00	16289.00
806.00	16780.00
807.00	17623.00
808.00	18210.00
809.00	18814.00
810.00	19915.00
811.00	21149.00
812.00	22215.00
813.00	23847.00
814.00	25026.00
815.00	26110.00
816.00	27267.00
817.00	27806.00
818.00	28182.00
819.00	28765.00
820.00	28943.00
821.00	28038.00
822.00	27181.00
823.00	26941.00
824.00	25482.00
825.00	23809.00
826.00	22211.00
827.00	21137.00
828.00	19083.00
829.00	18083.00
830.00	16695.00
831.00	15775.00
832.00	15163.00
833.00	14284.00
834.00	14031.00
835.00	13539.00
836.00	13324.00
837.00	13130.00
838.00	13047.00
839.00	13062.00
840.00	12993.00
841.00	13181.00
842.00	13101.00
843.00	13151.00
844.00	13045.00
845.00	13178.00
846.00	13154.00
847.00	12947.00
848.00	12754.00
849.00	12906.00
850.00	12871.00
851.00	12770.00
852.00	12511.00
853.00	12700.00
854.00	12652.00
855.00	12573.00
856.00	12687.00
857.00	12507.00
858.00	12532.00
859.00	12554.00
860.00	12734.00
861.00	12574.00
862.00	12619.00
863.00	12770.00
864.00	12639.00
865.00	12546.00
866.00	13013.00
867.00	12837.00
868.00	12820.00
869.00	12715.00
870.00	12888.00
871.00	12966.00
872.00	12973.00
873.00	12942.00
874.00	13078.00
875.00	13201.00
876.00	13002.00
877.00	12899.00
878.00	13420.00
879.00	13193.00
880.00	13379.00
881.00	13505.00
882.00	13384.00
883.00	13566.00
884.00	13711.00
885.00	13687.00
886.00	14000.00
887.00	13818.00
888.00	14253.00
889.00	14551.00
890.00	14507.00
891.00	14922.00
892.00	14805.00
893.00	15300.00
894.00	15268.00
895.00	15558.00
896.00	15913.00
897.00	16157.00
898.00	16043.00
899.00	16482.00
900.00	16699.00
901.00	16935.00
902.00	16921.00
903.00	17243.00
904.00	17516.00
905.00	17747.00
906.00	17531.00
907.00	17941.00
908.00	17908.00
909.00	18363.00
910.00	18450.00
911.00	18561.00
912.00	18848.00
913.00	18660.00
914.00	18944.00
915.00	18710.00
916.00	19361.00
917.00	19292.00
918.00	19339.00
919.00	19349.00
920.00	19627.00
921.00	19532.00
922.00	19629.00
923.00	19959.00
924.00	20227.00
925.00	20261.00
926.00	20429.00
927.00	20560.00
928.00	20604.00
929.00	20851.00
930.00	21127.00
931.00	21703.00
932.00	22198.00
933.00	22215.00
934.00	22864.00
935.00	23296.00
936.00	23991.00
937.00	24575.00
938.00	25164.00
939.00	25727.00
940.00	26180.00
941.00	26623.00
942.00	26879.00
943.00	27139.00
944.00	26893.00
945.00	26989.00
946.00	26766.00
947.00	26152.00
948.00	25585.00
949.00	25136.00
950.00	24102.00
951.00	23988.00
952.00	23126.00
953.00	22429.00
954.00	21933.00
955.00	21388.00
956.00	20955.00
957.00	20856.00
958.00	20545.00
959.00	20210.00
960.00	19852.00
961.00	19856.00
962.00	20076.00
963.00	19739.00
964.00	19861.00
965.00	20258.00
966.00	20260.00
967.00	20399.00
968.00	20491.00
969.00	20429.00
970.00	20497.00
971.00	20653.00
972.00	20199.00
973.00	20483.00
974.00	20400.00
975.00	20144.00
976.00	20058.00
977.00	19760.00
978.00	19355.00
979.00	19391.00
980.00	18993.00
981.00	18909.00
982.00	18676.00
983.00	18283.00
984.00	18000.00
985.00	18114.00
986.00	17793.00
987.00	17845.00
988.00	17686.00
989.00	17631.00
990.00	17580.00
991.00	17367.00
992.00	17689.00
993.00	17329.00
994.00	17434.00
995.00	17423.00
996.00	17433.00
997.00	17131.00
998.00	17095.00
999.00	17294.00
1000.00	17353.00
1001.00	17452.00
1002.00	17253.00
1003.00	17064.00
1004.00	17425.00
1005.00	17147.00
1006.00	17337.00
1007.00	17284.00
1008.00	17248.00
1009.00	17274.00
1010.00	17288.00
1011.00	17413.00
1012.00	17173.00
1013.00	17355.00
1014.00	17341.00
1015.00	17349.00
1016.00	17464.00
1017.00	17393.00
1018.00	17500.00
1019.00	17634.00
1020.00	17517.00
1021.00	17502.00
1022.00	17639.00
1023.00	17712.00
1024.00	17972.00
1025.00	17842.00
1026.00	18159.00
1027.00	18148.00
1028.00	18064.00
1029.00	18260.00
1030.00	18106.00
1031.00	17922.00
1032.00	18086.00
1033.00	17834.00
1034.00	17993.00
1035.00	18027.00
1036.00	17868.00
1037.00	17794.00
1038.00	17901.00
1039.00	18034.00
1040.00	18243.00
1041.00	17945.00
1042.00	18128.00
1043.00	17998.00
1044.00	18140.00
1045.00	17923.00
1046.00	18341.00
1047.00	18276.00
1048.00	18255.00
1049.00	18463.00
1050.00	18618.00
1051.00	18401.00
1052.00	18492.00
1053.00	18454.00
1054.00	18778.00
1055.00	18714.00
1056.00	18747.00
1057.00	18837.00
1058.00	18933.00
1059.00	19303.00
1060.00	19033.00
1061.00	19093.00
1062.00	19312.00
1063.00	19249.00
1064.00	19338.00
1065.00	19367.00
1066.00	19366.00
1067.00	19364.00
1068.00	19552.00
1069.00	19612.00
1070.00	19564.00
1071.00	19374.00
1072.00	19401.00
1073.00	19577.00
1074.00	19691.00
1075.00	19511.00
1076.00	19536.00
1077.00	19542.00
1078.00	19598.00
1079.00	19710.00
1080.00	19526.00
1081.00	19796.00
1082.00	19730.00
1083.00	19966.00
1084.00	19767.00
1085.00	20018.00
1086.00	20015.00
1087.00	19936.00
1088.00	20123.00
1089.00	20336.00
1090.00	20317.00
1091.00	20433.00
1092.00	20316.00
1093.00	20725.00
1094.00	20765.00
1095.00	20711.00
1096.00	20984.00
1097.00	21043.00
1098.00	21111.00
1099.00	21315.00
1100.00	21548.00
1101.00	21214.00
1102.00	21381.00
1103.00	21313.00
1104.00	21363.00
1105.00	21463.00
1106.00	21199.00
1107.00	21035.00
1108.00	21257.00
1109.00	21038.00
1110.00	21147.00
1111.00	20853.00
1112.00	20761.00
1113.00	20883.00
1114.00	21111.00
1115.00	21173.00
1116.00	20933.00
1117.00	20701.00
1118.00	20520.00
1119.00	20512.00
1120.00	20762.00
1121.00	20683.00
1122.00	20875.00
1123.00	20734.00
1124.00	20735.00
1125.00	21070.00
1126.00	20969.00
1127.00	20841.00
1128.00	20736.00
1129.00	21137.00
1130.00	21008.00
1131.00	20779.00
1132.00	20999.00
1133.00	21128.00
1134.00	21014.00
1135.00	21118.00
1136.00	20884.00
1137.00	21109.00
1138.00	21253.00
1139.00	21133.00
1140.00	21269.00
1141.00	21000.00
1142.00	20856.00
1143.00	21177.00
1144.00	21354.00
1145.00	21307.00
1146.00	21291.00
1147.00	21369.00
1148.00	21429.00
1149.00	21582.00
1150.00	21801.00
1151.00	22127.00
1152.00	22293.00
1153.00	22379.00
1154.00	22794.00
1155.00	22696.00
1156.00	23125.00
1157.00	23454.00
1158.00	23493.00
1159.00	23547.00
1160.00	23586.00
1161.00	23776.00
1162.00	24100.00
1163.00	23991.00
1164.00	23903.00
1165.00	23681.00
1166.00	23849.00
1167.00	23416.00
1168.00	23041.00
1169.00	22885.00
1170.00	22360.00
1171.00	22609.00
1172.00	21781.00
1173.00	22004.00
1174.00	21827.00
1175.00	21604.00
1176.00	21662.00
1177.00	21363.00
1178.00	21362.00
1179.00	21339.00
1180.00	21105.00
1181.00	21083.00
1182.00	21111.00
1183.00	21028.00
1184.00	20907.00
1185.00	21051.00
1186.00	21213.00
1187.00	21095.00
1188.00	20919.00
1189.00	20924.00
1190.00	20862.00
1191.00	21073.00
1192.00	21128.00
1193.00	20987.00
1194.00	21179.00
1195.00	21010.00
1196.00	21239.00
1197.00	21352.00
1198.00	20962.00
1199.00	21088.00
1200.00	21340.00
1201.00	21277.00
1202.00	21091.00
1203.00	21135.00
1204.00	21368.00
1205.00	21605.00
1206.00	21215.00
1207.00	21399.00
1208.00	21471.00
1209.00	21529.00
1210.00	21533.00
1211.00	21487.00
1212.00	21498.00
1213.00	21742.00
1214.00	21866.00
1215.00	21903.00
1216.00	21719.00
1217.00	21856.00
1218.00	22053.00
1219.00	21974.00
1220.00	21743.00
1221.00	21912.00
1222.00	22045.00
1223.00	22209.00
1224.00	22137.00
1225.00	22220.00
1226.00	22419.00
1227.00	21981.00
1228.00	22456.00
1229.00	22663.00
1230.00	22372.00
1231.00	22375.00
1232.00	22478.00
1233.00	22568.00
1234.00	22652.00
1235.00	22473.00
1236.00	22482.00
1237.00	22726.00
1238.00	22334.00
1239.00	22883.00
1240.00	22657.00
1241.00	22459.00
1242.00	22880.00
1243.00	22863.00
1244.00	22484.00
1245.00	22351.00
1246.00	22485.00
1247.00	22307.00
1248.00	22230.00
